#  Table crwfpc2comp$wfpc2_f814w_004.tab  Thu 08:19:11 15-May-97
# WAVELENGTH   THROUGHPUT        error
#  ANGSTROMS TRANSMISSION TRANSMISSION
0.185000	3.03840e-07
0.186000	3.17770e-05
0.187000	4.10210e-06
0.188000	4.54600e-07
0.189000	3.92530e-06
0.190000	3.03840e-07
0.191000	3.03840e-07
0.192000	5.91150e-05
0.193000	4.70650e-06
0.194000	3.03840e-07
0.195000	9.83000e-06
0.196000	2.71550e-05
0.197000	5.83270e-07
0.198000	3.04030e-07
0.199000	1.91410e-05
0.200000	3.17480e-06
0.201000	2.39260e-06
0.202000	1.41160e-05
0.203000	1.74400e-05
0.204000	6.62440e-07
0.205000	6.28330e-06
0.206000	1.67970e-06
0.207000	2.95190e-06
0.208000	2.60790e-06
0.209000	5.51560e-06
0.210000	5.47910e-06
0.211000	2.49830e-06
0.212000	3.03840e-07
0.213000	1.84490e-06
0.214000	1.33660e-06
0.215000	1.45480e-05
0.216000	1.35780e-06
0.217000	3.34010e-07
0.218000	4.23950e-07
0.219000	3.03840e-07
0.220000	3.92430e-07
0.221000	4.60660e-07
0.222000	1.98520e-06
0.223000	7.33260e-07
0.224000	3.05850e-07
0.225000	1.61620e-06
0.226000	9.44180e-07
0.227000	4.30390e-07
0.228000	3.03840e-07
0.229000	3.03840e-07
0.230000	3.30840e-07
0.231000	2.16200e-06
0.232000	3.93780e-07
0.233000	9.02280e-07
0.234000	4.03290e-07
0.235000	2.12840e-06
0.236000	3.54000e-06
0.237000	7.07130e-07
0.238000	7.93130e-06
0.239000	3.28630e-07
0.240000	4.44510e-07
0.241000	3.03840e-07
0.242000	1.04450e-06
0.243000	4.20200e-06
0.244000	6.78490e-07
0.245000	3.03840e-07
0.246000	6.46690e-07
0.247000	1.25970e-06
0.248000	3.92240e-06
0.249000	3.41700e-07
0.250000	4.29230e-07
0.251000	8.40980e-07
0.252000	4.63350e-07
0.253000	3.60240e-07
0.254000	1.30390e-06
0.255000	4.72860e-07
0.256000	3.03840e-07
0.257000	2.19950e-06
0.258000	1.82760e-06
0.259000	1.56910e-06
0.260000	1.00130e-06
0.261000	3.34390e-07
0.262000	1.60280e-06
0.263000	3.54670e-07
0.264000	6.66860e-07
0.265000	4.21450e-07
0.266000	3.26900e-06
0.267000	9.99340e-07
0.268000	4.46720e-07
0.269000	3.03840e-07
0.270000	4.21450e-07
0.271000	3.03840e-07
0.272000	3.94060e-07
0.273000	8.42710e-07
0.274000	6.61680e-07
0.275000	4.35580e-07
0.276000	6.34670e-07
0.277000	1.34330e-06
0.278000	3.16230e-07
0.279000	9.41390e-07
0.280000	3.03840e-07
0.281000	3.03840e-07
0.282000	6.45630e-07
0.283000	7.04820e-07
0.284000	1.16080e-06
0.285000	3.71390e-07
0.286000	2.03610e-06
0.287000	7.42300e-07
0.288000	7.40180e-07
0.289000	1.88910e-06
0.290000	1.29140e-06
0.291000	3.03840e-07
0.292000	1.39230e-06
0.293000	2.20810e-06
0.294000	4.71130e-07
0.295000	2.06310e-06
0.296000	3.03840e-07
0.297000	4.52010e-07
0.298000	4.66520e-07
0.299000	3.03840e-07
0.300000	2.73090e-06
0.301000	3.03840e-07
0.302000	7.13280e-07
0.303000	4.12990e-07
0.304000	6.91750e-07
0.305000	1.28950e-06
0.306000	5.77120e-07
0.307000	1.02530e-06
0.308000	6.61100e-07
0.309000	6.19490e-06
0.310000	1.10890e-05
0.311000	1.14540e-06
0.312000	3.03840e-07
0.313000	4.20390e-07
0.314000	2.05730e-06
0.315000	2.20720e-06
0.316000	2.93840e-06
0.317000	1.03870e-06
0.318000	1.05410e-06
0.319000	4.55660e-07
0.320000	7.30570e-07
0.321000	4.78720e-07
0.322000	5.60010e-07
0.323000	8.32430e-07
0.324000	1.87660e-06
0.325000	3.82050e-07
0.326000	3.03840e-07
0.327000	1.74210e-06
0.328000	3.49770e-06
0.329000	1.17420e-06
0.330000	3.03840e-07
0.331000	4.00500e-07
0.332000	4.68820e-07
0.333000	1.33370e-06
0.334000	6.55810e-07
0.335000	8.10710e-07
0.336000	3.03840e-07
0.337000	2.92210e-06
0.338000	3.74460e-07
0.339000	3.52840e-07
0.340000	3.44870e-07
0.341000	4.15300e-06
0.342000	2.16300e-06
0.343000	4.72380e-07
0.344000	4.28850e-07
0.345000	4.56140e-07
0.346000	2.19570e-06
0.347000	3.34390e-07
0.348000	2.37530e-06
0.349000	1.29910e-06
0.350000	5.31570e-06
0.351000	5.63570e-06
0.352000	3.05090e-07
0.353000	4.95440e-07
0.354000	1.33850e-06
0.355000	6.36210e-07
0.356000	5.01490e-07
0.357000	6.04020e-07
0.358000	1.64790e-06
0.359000	2.80490e-06
0.360000	5.82690e-07
0.361000	3.19600e-07
0.362000	3.79270e-06
0.363000	2.45030e-06
0.364000	3.03840e-07
0.365000	3.30650e-07
0.366000	8.73360e-07
0.367000	3.82730e-07
0.368000	2.49160e-06
0.369000	2.46860e-06
0.370000	9.27840e-07
0.371000	1.93810e-06
0.372000	7.43160e-07
0.373000	5.62220e-07
0.374000	5.92300e-07
0.375000	1.46440e-06
0.376000	3.08350e-07
0.377000	3.03840e-07
0.378000	6.16510e-07
0.379000	3.46120e-07
0.380000	5.66830e-07
0.381000	3.61300e-07
0.382000	2.31870e-06
0.383000	7.09720e-07
0.384000	3.03840e-07
0.385000	3.03840e-07
0.386000	3.91570e-07
0.387000	3.58800e-07
0.388000	5.95180e-07
0.389000	3.18440e-07
0.390000	2.77030e-06
0.391000	9.20350e-07
0.392000	3.73500e-07
0.393000	3.03840e-07
0.394000	6.62350e-07
0.395000	3.43430e-07
0.396000	5.60110e-07
0.397000	3.06240e-07
0.398000	4.50370e-07
0.399000	3.03840e-07
0.400000	1.14920e-06
0.401000	3.73120e-07
0.402000	1.30010e-06
0.403000	5.32820e-07
0.404000	3.03840e-07
0.405000	3.03840e-07
0.406000	6.86080e-07
0.407000	4.85160e-07
0.408000	1.68930e-06
0.409000	1.16850e-06
0.410000	3.38240e-07
0.411000	3.03840e-07
0.412000	4.26640e-07
0.413000	6.36500e-07
0.414000	4.00500e-07
0.415000	3.03840e-07
0.416000	7.10970e-07
0.417000	3.03840e-07
0.418000	3.03840e-07
0.419000	3.98580e-07
0.420000	3.25460e-07
0.421000	4.03870e-07
0.422000	4.56240e-07
0.423000	5.26090e-07
0.424000	3.83880e-07
0.425000	5.76730e-07
0.426000	3.03840e-07
0.427000	3.03840e-07
0.428000	3.03840e-07
0.429000	3.03840e-07
0.430000	3.03840e-07
0.431000	3.03840e-07
0.432000	3.03840e-07
0.433000	3.03840e-07
0.434000	3.03840e-07
0.435000	3.03840e-07
0.436000	3.03840e-07
0.437000	3.03840e-07
0.438000	3.03840e-07
0.439000	6.28040e-07
0.440000	1.44230e-05
0.441000	2.83850e-05
0.442000	3.63990e-05
0.443000	4.35000e-05
0.444000	3.94160e-05
0.445000	2.84520e-05
0.446000	1.80940e-05
0.447000	7.29420e-06
0.448000	1.49130e-06
0.449000	3.30930e-07
0.450000	3.82920e-07
0.451000	3.03840e-07
0.452000	1.27610e-06
0.453000	1.56910e-06
0.454000	5.10140e-07
0.455000	8.04370e-07
0.456000	3.75420e-07
0.457000	3.03840e-07
0.458000	5.06300e-07
0.459000	3.58610e-07
0.460000	6.48420e-07
0.461000	7.08570e-07
0.462000	4.55950e-07
0.463000	8.02350e-07
0.464000	3.03840e-07
0.465000	3.03840e-07
0.466000	3.03840e-07
0.467000	3.03840e-07
0.468000	6.02000e-07
0.469000	3.03840e-07
0.470000	5.79520e-07
0.471000	6.29290e-07
0.472000	6.35920e-07
0.473000	5.85570e-07
0.474000	3.03840e-07
0.475000	3.03840e-07
0.476000	7.17410e-07
0.477000	3.03840e-07
0.478000	4.07520e-07
0.479000	3.03840e-07
0.480000	5.55880e-07
0.481000	3.03840e-07
0.482000	3.03840e-07
0.483000	3.07680e-07
0.484000	3.73790e-07
0.485000	3.03840e-07
0.486000	3.03840e-07
0.487000	3.69850e-07
0.488000	3.03840e-07
0.489000	4.69690e-07
0.490000	6.18720e-07
0.491000	6.25550e-07
0.492000	3.03840e-07
0.493000	7.19230e-07
0.494000	6.29490e-07
0.495000	3.23150e-07
0.496000	3.61010e-07
0.497000	5.85670e-07
0.498000	3.08740e-07
0.499000	5.85190e-07
0.500000	3.03840e-07
0.501000	3.56970e-07
0.502000	3.07010e-07
0.503000	9.66670e-07
0.504000	3.32280e-07
0.505000	3.03840e-07
0.506000	3.71580e-07
0.507000	4.57480e-07
0.508000	3.18630e-07
0.509000	3.87530e-07
0.510000	5.91150e-07
0.511000	5.31950e-07
0.512000	3.30740e-07
0.513000	3.03840e-07
0.514000	4.22800e-07
0.515000	1.25110e-06
0.516000	7.77270e-07
0.517000	3.19310e-07
0.518000	3.03840e-07
0.519000	3.03840e-07
0.520000	3.03840e-07
0.521000	3.03840e-07
0.522000	8.05330e-07
0.523000	5.53190e-07
0.524000	4.96300e-07
0.525000	4.65170e-07
0.526000	5.58960e-07
0.527000	4.38270e-07
0.528000	7.88130e-07
0.529000	3.03840e-07
0.530000	3.39100e-07
0.531000	4.24530e-07
0.532000	1.07810e-06
0.533000	6.75700e-07
0.534000	5.96530e-07
0.535000	3.73600e-07
0.536000	1.16850e-06
0.537000	6.75990e-07
0.538000	3.03840e-07
0.539000	3.03840e-07
0.540000	1.26170e-06
0.541000	3.03840e-07
0.542000	3.66200e-07
0.543000	9.10640e-07
0.544000	6.55620e-07
0.545000	5.11290e-07
0.546000	3.09700e-07
0.547000	3.03840e-07
0.548000	3.77060e-07
0.549000	3.03840e-07
0.550000	1.14540e-06
0.551000	1.42690e-06
0.552000	6.62730e-07
0.553000	3.03840e-07
0.554000	3.97240e-07
0.555000	3.03840e-07
0.556000	4.07330e-07
0.557000	6.95110e-07
0.558000	1.06950e-06
0.559000	5.87210e-07
0.560000	8.33770e-07
0.561000	3.87920e-07
0.562000	6.99630e-07
0.563000	3.97330e-07
0.564000	4.15490e-07
0.565000	4.62480e-07
0.566000	5.76060e-07
0.567000	9.37930e-07
0.568000	3.03840e-07
0.569000	3.03840e-07
0.570000	3.81190e-07
0.571000	7.27210e-07
0.572000	3.36600e-07
0.573000	3.03840e-07
0.574000	3.32180e-07
0.575000	3.03840e-07
0.576000	1.29530e-06
0.577000	3.03840e-07
0.578000	4.31830e-07
0.579000	3.13930e-07
0.580000	5.16770e-07
0.581000	5.01300e-07
0.582000	1.83340e-06
0.583000	9.73390e-07
0.584000	1.02720e-06
0.585000	3.03840e-07
0.586000	3.03840e-07
0.587000	8.49530e-07
0.588000	3.94830e-07
0.589000	6.29000e-07
0.590000	5.12930e-07
0.591000	5.29550e-07
0.592000	9.56480e-07
0.593000	5.56460e-07
0.594000	4.59210e-07
0.595000	3.03840e-07
0.596000	4.25970e-07
0.597000	8.66250e-07
0.598000	1.02050e-06
0.599000	3.03840e-07
0.600000	1.18290e-06
0.601000	1.48750e-06
0.602000	3.03840e-07
0.603000	3.03840e-07
0.604000	1.71520e-06
0.605000	1.23380e-06
0.606000	8.56160e-07
0.607000	3.47460e-07
0.608000	3.03840e-07
0.609000	4.72280e-07
0.610000	9.62820e-07
0.611000	1.19630e-06
0.612000	3.03840e-07
0.613000	7.28070e-07
0.614000	4.67960e-07
0.615000	8.94500e-07
0.616000	3.03840e-07
0.617000	3.03840e-07
0.618000	4.07520e-07
0.619000	1.05120e-06
0.620000	3.05470e-07
0.621000	3.03840e-07
0.622000	5.02450e-07
0.623000	2.19760e-06
0.624000	1.37890e-06
0.625000	5.05910e-07
0.626000	1.57590e-06
0.627000	6.36600e-07
0.628000	4.46430e-07
0.629000	3.03840e-07
0.630000	6.11710e-07
0.631000	3.13540e-07
0.632000	3.95990e-07
0.633000	2.03610e-06
0.634000	4.17510e-07
0.635000	1.25690e-06
0.636000	4.09540e-07
0.637000	3.65050e-07
0.638000	1.49610e-06
0.639000	1.97750e-06
0.640000	7.16540e-07
0.641000	3.63600e-07
0.642000	1.39140e-06
0.643000	4.18180e-07
0.644000	1.45480e-06
0.645000	4.63060e-07
0.646000	6.72340e-07
0.647000	7.47770e-07
0.648000	1.21460e-06
0.649000	7.71700e-07
0.650000	4.23560e-07
0.651000	5.60780e-07
0.652000	3.03840e-07
0.653000	5.72120e-07
0.654000	1.21840e-06
0.655000	1.18190e-06
0.656000	1.38950e-06
0.657000	3.41120e-07
0.658000	6.64170e-07
0.659000	7.61800e-07
0.660000	3.54670e-07
0.661000	5.60490e-07
0.662000	1.34430e-06
0.663000	9.57540e-07
0.664000	4.90440e-07
0.665000	4.49600e-07
0.666000	7.82650e-07
0.667000	7.28270e-07
0.668000	4.60170e-07
0.669000	4.52680e-07
0.670000	1.02620e-06
0.671000	6.90310e-07
0.672000	1.64410e-06
0.673000	1.35290e-06
0.674000	4.06650e-06
0.675000	7.18370e-06
0.676000	9.46010e-06
0.677000	1.44420e-05
0.678000	2.13320e-05
0.679000	3.13730e-05
0.680000	4.98320e-05
0.681000	7.61320e-05
0.682000	0.000118090
0.683000	0.000178920
0.684000	0.000279720
0.685000	0.000409150
0.686000	0.000630160
0.687000	0.000905650
0.688000	0.00136060
0.689000	0.00187180
0.692000	0.00368310
0.692200	0.00393200
0.692400	0.00424140
0.692600	0.00454890
0.692800	0.00489390
0.693000	0.00521960
0.693200	0.00558380
0.693400	0.00600560
0.693600	0.00642750
0.693800	0.00686850
0.694000	0.00734900
0.694200	0.00788610
0.694400	0.00840500
0.694600	0.00897860
0.694800	0.00960900
0.695000	0.0102430
0.695200	0.0109730
0.695400	0.0117040
0.695600	0.0124720
0.695800	0.0133280
0.696000	0.0142120
0.696200	0.0151530
0.696400	0.0162100
0.696600	0.0172770
0.696800	0.0184680
0.697000	0.0196600
0.697200	0.0209670
0.697400	0.0223220
0.697600	0.0238010
0.697800	0.0253580
0.698000	0.0270400
0.698200	0.0288170
0.698400	0.0307010
0.698600	0.0327380
0.698800	0.0348420
0.699000	0.0370720
0.699200	0.0394830
0.699400	0.0419910
0.699600	0.0446630
0.699800	0.0474780
0.700000	0.0505430
0.700200	0.0538200
0.700400	0.0572890
0.700600	0.0609690
0.700800	0.0649380
0.701000	0.0690600
0.701200	0.0733740
0.701400	0.0779770
0.701600	0.0829640
0.701800	0.0882110
0.702000	0.0938130
0.702200	0.0997410
0.702400	0.105890
0.702600	0.112520
0.702800	0.119730
0.703000	0.127130
0.703200	0.135010
0.703400	0.143270
0.703600	0.152010
0.703800	0.161240
0.704000	0.170940
0.704200	0.181320
0.704400	0.192080
0.704600	0.203230
0.704800	0.214860
0.705000	0.226960
0.705200	0.239740
0.705400	0.253000
0.705600	0.266940
0.705800	0.281350
0.706000	0.296250
0.706200	0.311520
0.706400	0.327090
0.706600	0.343330
0.706800	0.359950
0.707000	0.376860
0.707200	0.394260
0.707400	0.412230
0.707600	0.430390
0.707800	0.448550
0.708000	0.466810
0.708200	0.485350
0.708400	0.504090
0.708600	0.522830
0.708800	0.541080
0.709000	0.559530
0.709200	0.577500
0.709400	0.595090
0.709600	0.612290
0.709800	0.629390
0.710000	0.645820
0.710200	0.661870
0.710400	0.677240
0.710600	0.691940
0.710800	0.706070
0.711000	0.719520
0.711200	0.732210
0.711400	0.743740
0.711600	0.755170
0.711800	0.765840
0.712000	0.776020
0.712200	0.785730
0.712400	0.794380
0.712600	0.802740
0.712800	0.810420
0.713000	0.817440
0.713200	0.823880
0.713400	0.829930
0.713600	0.835600
0.713800	0.840400
0.714000	0.845020
0.714200	0.848950
0.714400	0.852800
0.714600	0.855970
0.714800	0.859140
0.715000	0.862020
0.715200	0.864620
0.715400	0.866830
0.715600	0.868850
0.715800	0.871060
0.716000	0.872880
0.716200	0.874420
0.716400	0.875760
0.716600	0.877110
0.716800	0.878260
0.717000	0.879700
0.717200	0.880860
0.717400	0.881910
0.717600	0.883070
0.717800	0.884220
0.718000	0.885080
0.718200	0.885850
0.718400	0.886810
0.718600	0.887780
0.718800	0.888450
0.719000	0.889410
0.719200	0.890370
0.719400	0.891230
0.719600	0.892390
0.719800	0.893440
0.720000	0.894500
0.720200	0.895650
0.720400	0.896710
0.720600	0.897860
0.720800	0.898830
0.721000	0.899880
0.721200	0.900750
0.721400	0.901900
0.721600	0.903050
0.721800	0.903920
0.722000	0.904980
0.722200	0.906130
0.722400	0.907190
0.722600	0.908530
0.722800	0.909880
0.723000	0.910930
0.723200	0.912090
0.723400	0.913050
0.723600	0.914100
0.723800	0.915350
0.724000	0.916510
0.724200	0.917560
0.724400	0.918520
0.724600	0.919580
0.724800	0.920450
0.725000	0.921120
0.725200	0.922080
0.725400	0.923040
0.725600	0.923910
0.725800	0.924670
0.726000	0.925730
0.726200	0.926310
0.726400	0.927080
0.726600	0.927840
0.726800	0.928230
0.727000	0.928710
0.727200	0.929380
0.727400	0.930050
0.727600	0.930250
0.727800	0.930540
0.728000	0.930820
0.728200	0.931300
0.728400	0.931590
0.728600	0.931780
0.728800	0.932070
0.729000	0.932260
0.729200	0.932070
0.729400	0.931880
0.729600	0.931880
0.729800	0.931500
0.730000	0.931110
0.730200	0.931110
0.730400	0.931020
0.730600	0.930820
0.730800	0.930630
0.731000	0.929960
0.731200	0.929570
0.731400	0.929000
0.731600	0.928330
0.731800	0.928040
0.732000	0.927460
0.732200	0.926980
0.732400	0.926210
0.732600	0.925440
0.732800	0.924670
0.733000	0.924290
0.733200	0.923620
0.733400	0.922940
0.733600	0.922080
0.733800	0.921020
0.734000	0.919870
0.734200	0.919000
0.734400	0.918240
0.734600	0.917560
0.734800	0.916990
0.735000	0.916120
0.735200	0.915350
0.735400	0.914490
0.735600	0.913430
0.735800	0.912570
0.736000	0.911700
0.736200	0.910640
0.736400	0.909780
0.736600	0.908820
0.736800	0.907670
0.737000	0.906710
0.737200	0.906030
0.737400	0.905260
0.737600	0.904300
0.737800	0.903820
0.738000	0.902770
0.738200	0.902090
0.738400	0.901320
0.738600	0.900650
0.738800	0.899790
0.739000	0.899110
0.739200	0.898250
0.739400	0.897480
0.739600	0.896710
0.739800	0.896140
0.740000	0.895270
0.740200	0.894790
0.740400	0.894210
0.740600	0.893730
0.740800	0.893350
0.741000	0.892580
0.741200	0.892100
0.741400	0.891520
0.741600	0.890950
0.741800	0.890270
0.742000	0.889890
0.742200	0.889700
0.742400	0.889500
0.742600	0.889020
0.742800	0.888830
0.743000	0.888350
0.743200	0.888160
0.743400	0.887870
0.743600	0.887780
0.743800	0.887680
0.744000	0.887580
0.744200	0.887490
0.744400	0.887390
0.744600	0.887100
0.744800	0.887100
0.745000	0.887200
0.745200	0.887010
0.745400	0.887290
0.745600	0.887390
0.745800	0.887290
0.746000	0.887390
0.746200	0.887390
0.746400	0.887490
0.746600	0.887680
0.746800	0.887970
0.747000	0.888160
0.747200	0.888350
0.747400	0.888740
0.747600	0.889020
0.747800	0.889220
0.748000	0.889500
0.748200	0.890080
0.748400	0.890470
0.748600	0.890660
0.748800	0.891330
0.749000	0.891810
0.749200	0.892200
0.749400	0.892580
0.749600	0.892870
0.749800	0.893060
0.750000	0.893640
0.750200	0.893920
0.750400	0.894500
0.750600	0.895270
0.750800	0.895560
0.751000	0.896230
0.751200	0.896900
0.751400	0.897580
0.751600	0.898060
0.751800	0.898730
0.752000	0.899110
0.752200	0.899790
0.752400	0.900650
0.752600	0.901320
0.752800	0.901900
0.753000	0.902670
0.753200	0.903250
0.753400	0.903820
0.753600	0.904210
0.753800	0.904690
0.754000	0.904880
0.754200	0.905550
0.754400	0.906130
0.754600	0.906710
0.754800	0.907470
0.755000	0.908340
0.755200	0.908820
0.755400	0.909490
0.755600	0.910550
0.755800	0.911030
0.756000	0.911510
0.756200	0.912370
0.756400	0.912850
0.756600	0.913430
0.756800	0.914010
0.757000	0.914870
0.757200	0.915930
0.757400	0.916600
0.757600	0.917180
0.757800	0.917180
0.758000	0.917760
0.758200	0.918240
0.758400	0.918720
0.758600	0.919100
0.758800	0.919680
0.759000	0.920350
0.759200	0.921020
0.759400	0.921500
0.759600	0.921890
0.759800	0.922270
0.760000	0.922940
0.760200	0.923420
0.760400	0.923910
0.760600	0.924290
0.760800	0.924770
0.761000	0.925440
0.761200	0.925730
0.761400	0.926400
0.761600	0.926880
0.761800	0.927270
0.762000	0.928040
0.762200	0.928330
0.762400	0.928810
0.762600	0.929290
0.762800	0.929770
0.763000	0.929960
0.763200	0.930440
0.763400	0.930540
0.763600	0.930820
0.763800	0.931500
0.764000	0.931780
0.764200	0.932260
0.764400	0.932460
0.764600	0.932840
0.764800	0.933130
0.765000	0.933230
0.765200	0.933320
0.765400	0.933420
0.765600	0.933800
0.765800	0.934090
0.766000	0.934570
0.766200	0.935050
0.766400	0.935340
0.766600	0.935530
0.766800	0.935820
0.767000	0.936010
0.767200	0.936200
0.767400	0.936300
0.767600	0.936590
0.767800	0.936970
0.768000	0.937070
0.768200	0.937360
0.768400	0.937550
0.768600	0.937550
0.768800	0.937840
0.769000	0.937930
0.769200	0.938320
0.769400	0.938410
0.769600	0.938900
0.769800	0.938800
0.770000	0.938990
0.770200	0.939180
0.770400	0.939090
0.770600	0.939090
0.770800	0.939280
0.771000	0.939090
0.771200	0.939470
0.771400	0.939570
0.771600	0.939570
0.771800	0.939380
0.772000	0.939660
0.772200	0.939860
0.772400	0.939760
0.772600	0.939860
0.772800	0.939760
0.773000	0.939950
0.773200	0.940140
0.773400	0.940240
0.773600	0.940340
0.773800	0.940620
0.774000	0.940530
0.774200	0.940340
0.774400	0.940430
0.774600	0.940620
0.774800	0.940720
0.775000	0.940820
0.775200	0.940820
0.775400	0.940620
0.775600	0.940530
0.775800	0.940430
0.776000	0.940430
0.776200	0.940430
0.776400	0.940340
0.776600	0.940340
0.776800	0.940140
0.777000	0.940240
0.777200	0.940620
0.777400	0.940530
0.777600	0.940720
0.777800	0.940820
0.778000	0.940620
0.778200	0.940620
0.778400	0.940240
0.778600	0.939950
0.778800	0.939950
0.779000	0.939860
0.779200	0.939760
0.779400	0.939760
0.779600	0.939950
0.779800	0.939760
0.780000	0.939470
0.780200	0.939470
0.780400	0.938990
0.780600	0.939180
0.780800	0.938990
0.781000	0.938990
0.781200	0.938900
0.781400	0.938800
0.781600	0.938610
0.781800	0.938510
0.782000	0.938510
0.782200	0.938410
0.782400	0.938220
0.782600	0.938130
0.782800	0.937930
0.783000	0.938030
0.783200	0.937650
0.783400	0.937840
0.783600	0.937840
0.783800	0.937550
0.784000	0.937260
0.784200	0.936970
0.784400	0.936490
0.784600	0.936590
0.784800	0.936200
0.785000	0.936110
0.785200	0.936010
0.785400	0.935720
0.785600	0.935720
0.785800	0.935720
0.786000	0.936110
0.786200	0.936010
0.786400	0.935820
0.786600	0.935720
0.786800	0.935440
0.787000	0.935150
0.787200	0.934860
0.787400	0.934670
0.787600	0.934380
0.787800	0.934470
0.788000	0.933710
0.788200	0.933420
0.788400	0.933230
0.788600	0.933030
0.788800	0.932840
0.789000	0.932840
0.789200	0.932940
0.789400	0.933030
0.789600	0.932940
0.789800	0.932750
0.790000	0.932650
0.790200	0.932550
0.790400	0.932460
0.790600	0.932070
0.790800	0.931780
0.791000	0.931400
0.791200	0.931210
0.791400	0.930730
0.791600	0.930730
0.791800	0.930730
0.792000	0.930630
0.792200	0.930250
0.792400	0.929960
0.792600	0.929860
0.792800	0.929570
0.793000	0.929670
0.793200	0.929570
0.793400	0.929190
0.793600	0.929090
0.793800	0.928710
0.794000	0.928520
0.794200	0.928040
0.794400	0.928040
0.794600	0.927650
0.794800	0.927170
0.795000	0.927360
0.795200	0.927170
0.795400	0.927270
0.795600	0.927360
0.795800	0.927360
0.796000	0.927270
0.796200	0.927270
0.796400	0.927270
0.796600	0.926880
0.796800	0.926880
0.797000	0.926690
0.797200	0.926400
0.797400	0.926400
0.797600	0.926120
0.797800	0.925730
0.798000	0.925630
0.798200	0.925350
0.798400	0.924870
0.798600	0.924580
0.798800	0.924580
0.799000	0.924870
0.799200	0.924870
0.799400	0.925060
0.799600	0.925060
0.799800	0.924870
0.800000	0.922460
0.800200	0.922850
0.800400	0.923140
0.800600	0.923140
0.800800	0.921890
0.801000	0.921600
0.801200	0.921410
0.801400	0.921700
0.801600	0.922080
0.801800	0.921980
0.802000	0.921700
0.802200	0.921310
0.802400	0.921020
0.802600	0.920930
0.802800	0.921600
0.803000	0.922180
0.803200	0.921790
0.803400	0.922560
0.803600	0.922270
0.803800	0.921890
0.804000	0.921790
0.804200	0.921890
0.804400	0.921890
0.804600	0.922750
0.804800	0.923140
0.805000	0.923140
0.805200	0.923420
0.805400	0.923910
0.805600	0.923620
0.805800	0.923620
0.806000	0.923330
0.806200	0.922850
0.806400	0.923420
0.806600	0.923620
0.806800	0.924100
0.807000	0.924480
0.807200	0.924960
0.807400	0.924770
0.807600	0.924290
0.807800	0.924480
0.808000	0.924000
0.808200	0.923520
0.808400	0.923710
0.808600	0.924290
0.808800	0.925250
0.809000	0.926310
0.809200	0.926690
0.809400	0.926600
0.809600	0.926210
0.809800	0.926310
0.810000	0.926020
0.810200	0.926020
0.810400	0.926120
0.810600	0.926500
0.810800	0.926880
0.811000	0.927560
0.811200	0.927650
0.811400	0.927650
0.811600	0.927360
0.811800	0.927270
0.812000	0.927460
0.812200	0.927270
0.812400	0.927650
0.812600	0.927940
0.812800	0.928230
0.813000	0.928420
0.813200	0.928900
0.813400	0.929570
0.813600	0.930150
0.813800	0.930250
0.814000	0.930150
0.814200	0.930820
0.814400	0.931020
0.814600	0.930630
0.814800	0.930920
0.815000	0.930820
0.815200	0.931210
0.815400	0.931300
0.815600	0.932070
0.815800	0.932260
0.816000	0.933030
0.816200	0.933320
0.816400	0.933900
0.816600	0.934670
0.816800	0.934570
0.817000	0.934670
0.817200	0.934570
0.817400	0.934280
0.817600	0.934090
0.817800	0.934280
0.818000	0.934380
0.818200	0.934760
0.818400	0.935150
0.818600	0.936300
0.818800	0.936490
0.819000	0.936300
0.819200	0.936490
0.819400	0.936490
0.819600	0.935920
0.819800	0.935050
0.820000	0.936010
0.820200	0.936590
0.820400	0.937360
0.820600	0.937740
0.820800	0.938030
0.821000	0.938320
0.821200	0.938800
0.821400	0.938900
0.821600	0.938990
0.821800	0.938990
0.822000	0.938800
0.822200	0.938800
0.822400	0.939090
0.822600	0.939380
0.822800	0.939380
0.823000	0.939470
0.823200	0.940340
0.823400	0.940340
0.823600	0.940530
0.823800	0.941300
0.824000	0.941200
0.824200	0.941200
0.824400	0.940430
0.824600	0.940910
0.824800	0.940910
0.825000	0.941490
0.825200	0.942260
0.825400	0.942830
0.825600	0.943220
0.825800	0.943030
0.826000	0.943410
0.826200	0.943510
0.826400	0.943320
0.826600	0.943510
0.826800	0.943600
0.827000	0.943600
0.827200	0.943410
0.827400	0.943410
0.827600	0.943030
0.827800	0.943700
0.828000	0.943320
0.828200	0.943410
0.828400	0.943410
0.828600	0.943320
0.828800	0.943320
0.829000	0.943600
0.829200	0.943600
0.829400	0.943990
0.829600	0.944470
0.829800	0.945330
0.830000	0.946100
0.830200	0.945810
0.830400	0.945910
0.830600	0.946200
0.830800	0.945040
0.831000	0.944850
0.831200	0.944660
0.831400	0.944660
0.831600	0.945140
0.831800	0.946200
0.832000	0.946010
0.832200	0.946100
0.832400	0.946580
0.832600	0.945810
0.832800	0.945240
0.833000	0.944950
0.833200	0.945140
0.833400	0.945720
0.833600	0.946390
0.833800	0.946970
0.834000	0.947540
0.834200	0.947640
0.834400	0.947250
0.834600	0.946580
0.834800	0.946100
0.835000	0.945810
0.835200	0.945910
0.835400	0.946200
0.835600	0.946970
0.835800	0.947060
0.836000	0.946970
0.836200	0.946970
0.836400	0.946010
0.836600	0.946200
0.836800	0.945430
0.837000	0.944950
0.837200	0.945330
0.837400	0.945620
0.837600	0.946290
0.837800	0.946680
0.838000	0.947540
0.838200	0.948120
0.838400	0.947640
0.838600	0.948310
0.838800	0.947640
0.839000	0.947060
0.839200	0.946290
0.839400	0.946680
0.839600	0.946490
0.839800	0.946290
0.840000	0.947060
0.840200	0.946010
0.840400	0.945530
0.840600	0.945240
0.840800	0.945330
0.841000	0.944850
0.841200	0.945530
0.841400	0.945530
0.841600	0.945810
0.841800	0.945430
0.842000	0.945140
0.842200	0.945430
0.842400	0.945720
0.842600	0.945720
0.842800	0.946290
0.843000	0.946100
0.843200	0.945720
0.843400	0.945040
0.843600	0.944560
0.843800	0.943510
0.844000	0.943990
0.844200	0.944660
0.844400	0.946010
0.844600	0.945720
0.844800	0.945530
0.845000	0.944760
0.845200	0.944470
0.845400	0.943320
0.845600	0.943220
0.845800	0.943030
0.846000	0.943410
0.846200	0.943600
0.846400	0.942930
0.846600	0.942550
0.846800	0.943030
0.847000	0.943410
0.847200	0.942930
0.847400	0.942740
0.847600	0.942640
0.847800	0.942450
0.848000	0.942550
0.848200	0.942930
0.848400	0.942740
0.848600	0.942350
0.848800	0.942450
0.849000	0.942350
0.849200	0.941590
0.849400	0.941110
0.849600	0.940820
0.849800	0.940430
0.850000	0.939760
0.850200	0.939090
0.850400	0.939470
0.850600	0.939760
0.850800	0.939760
0.851000	0.940050
0.851200	0.939860
0.851400	0.939180
0.851600	0.938320
0.851800	0.938220
0.852000	0.938320
0.852200	0.937840
0.852400	0.937450
0.852600	0.936970
0.852800	0.937360
0.853000	0.936880
0.853200	0.935720
0.853400	0.935150
0.853600	0.935820
0.853800	0.934960
0.854000	0.934860
0.854200	0.934090
0.854400	0.933800
0.854600	0.933900
0.854800	0.933320
0.855000	0.932460
0.855200	0.931880
0.855400	0.931020
0.855600	0.930920
0.855800	0.930540
0.856000	0.931110
0.856200	0.931300
0.856400	0.930630
0.856600	0.930820
0.856800	0.930340
0.857000	0.928810
0.857200	0.927940
0.857400	0.926980
0.857600	0.926980
0.857800	0.926880
0.858000	0.926210
0.858200	0.925730
0.858400	0.925250
0.858600	0.924190
0.858800	0.923420
0.859000	0.922850
0.859200	0.922270
0.859400	0.922660
0.859600	0.922370
0.859800	0.921500
0.860000	0.921790
0.860200	0.921600
0.860400	0.921120
0.860600	0.920640
0.860800	0.920060
0.861000	0.919200
0.861200	0.918140
0.861400	0.917760
0.861600	0.917470
0.861800	0.916890
0.862000	0.915830
0.862200	0.915930
0.862400	0.915350
0.862600	0.914490
0.862800	0.914010
0.863000	0.913340
0.863200	0.912850
0.863400	0.912760
0.863600	0.911990
0.863800	0.911990
0.864000	0.911320
0.864200	0.910640
0.864400	0.909200
0.864600	0.908240
0.864800	0.906510
0.865000	0.906320
0.865200	0.906130
0.865400	0.906420
0.865600	0.905840
0.865800	0.905070
0.866000	0.903820
0.866200	0.903150
0.866400	0.903050
0.866600	0.902090
0.866800	0.902000
0.867000	0.901130
0.867200	0.901130
0.867400	0.900560
0.867600	0.898630
0.867800	0.897190
0.868000	0.896810
0.868200	0.896330
0.868400	0.895460
0.868600	0.894690
0.868800	0.894410
0.869000	0.894310
0.869200	0.894020
0.869400	0.893250
0.869600	0.892390
0.869800	0.891040
0.870000	0.889890
0.870200	0.888350
0.870400	0.888350
0.870600	0.887580
0.870800	0.887390
0.871000	0.887010
0.871200	0.886430
0.871400	0.885570
0.871600	0.884890
0.871800	0.884890
0.872000	0.884700
0.872200	0.883840
0.872400	0.883160
0.872600	0.882200
0.872800	0.881910
0.873000	0.881630
0.873200	0.879800
0.873400	0.878740
0.873600	0.877780
0.873800	0.878070
0.874000	0.877400
0.874200	0.877010
0.874400	0.876820
0.874600	0.876530
0.874800	0.876240
0.875000	0.875090
0.875200	0.874030
0.875400	0.872980
0.875600	0.872500
0.875800	0.872110
0.876000	0.871630
0.876200	0.871730
0.876400	0.871150
0.876600	0.870190
0.876800	0.869610
0.877000	0.869130
0.877200	0.868560
0.877400	0.867980
0.877600	0.867600
0.877800	0.866730
0.878000	0.865580
0.878200	0.864810
0.878400	0.864430
0.878600	0.864520
0.878800	0.863940
0.879000	0.863370
0.879200	0.862790
0.879400	0.861730
0.879600	0.861160
0.879800	0.860580
0.880000	0.860580
0.880200	0.860290
0.880400	0.859810
0.880600	0.859620
0.880800	0.859520
0.881000	0.859520
0.881200	0.858470
0.881400	0.857600
0.881600	0.857310
0.881800	0.857030
0.882000	0.857030
0.882200	0.856740
0.882400	0.856640
0.882600	0.855870
0.882800	0.854820
0.883000	0.854620
0.883200	0.854530
0.883400	0.854430
0.883600	0.854240
0.883800	0.853760
0.884000	0.853180
0.884200	0.853570
0.884400	0.853860
0.884600	0.853380
0.884800	0.853860
0.885000	0.853660
0.885200	0.852700
0.885400	0.851740
0.885600	0.851550
0.885800	0.851650
0.886000	0.852220
0.886200	0.852890
0.886400	0.852800
0.886600	0.853090
0.886800	0.852700
0.887000	0.852030
0.887200	0.851550
0.887400	0.850880
0.887600	0.850590
0.887800	0.850590
0.888000	0.850970
0.888200	0.851260
0.888400	0.850970
0.888600	0.851260
0.888800	0.850970
0.889000	0.850970
0.889200	0.850400
0.889400	0.850010
0.889600	0.850780
0.889800	0.851550
0.890000	0.852130
0.890200	0.852510
0.890400	0.852320
0.890600	0.852890
0.890800	0.853570
0.891000	0.853760
0.891200	0.853660
0.891400	0.853180
0.891600	0.852890
0.891800	0.851740
0.892000	0.851550
0.892200	0.852510
0.892400	0.853860
0.892600	0.854720
0.892800	0.855300
0.893000	0.856070
0.893200	0.855970
0.893400	0.855100
0.893600	0.855490
0.893800	0.856070
0.894000	0.856550
0.894200	0.856640
0.894400	0.856450
0.894600	0.856740
0.894800	0.857310
0.895000	0.857700
0.895200	0.858280
0.895400	0.858950
0.895600	0.859520
0.895800	0.859430
0.896000	0.859240
0.896200	0.859720
0.896400	0.860770
0.896600	0.861730
0.896800	0.862890
0.897000	0.863080
0.897200	0.863370
0.897400	0.863270
0.897600	0.863270
0.897800	0.863660
0.898000	0.863850
0.898200	0.865580
0.898400	0.866920
0.898600	0.866830
0.898800	0.867120
0.899000	0.867210
0.899200	0.867400
0.899400	0.867400
0.899600	0.868370
0.899800	0.869900
0.900000	0.871730
0.900200	0.872500
0.900400	0.873270
0.900600	0.873460
0.900800	0.874030
0.901000	0.873840
0.901200	0.874130
0.901400	0.875480
0.901600	0.877210
0.901800	0.878740
0.902000	0.879900
0.902200	0.880090
0.902400	0.880280
0.902600	0.879990
0.902800	0.880950
0.903000	0.882200
0.903200	0.883740
0.903400	0.884600
0.903600	0.885660
0.903800	0.886330
0.904000	0.886430
0.904200	0.885850
0.904400	0.886430
0.904600	0.887010
0.904800	0.888260
0.905000	0.889700
0.905200	0.890270
0.905400	0.890660
0.905600	0.891230
0.905800	0.892000
0.906000	0.892200
0.906200	0.892100
0.906400	0.893640
0.906600	0.894980
0.906800	0.895560
0.907000	0.896710
0.907200	0.897860
0.907400	0.898920
0.907600	0.899690
0.907800	0.900840
0.908000	0.901320
0.908200	0.901800
0.908400	0.901610
0.908600	0.902280
0.908800	0.902670
0.909000	0.904690
0.909200	0.905740
0.909400	0.906510
0.909600	0.908530
0.909800	0.909780
0.910000	0.910160
0.910200	0.910550
0.910400	0.910640
0.910600	0.911320
0.910800	0.912470
0.911000	0.913430
0.911200	0.914010
0.911400	0.914100
0.911600	0.914680
0.911800	0.914580
0.912000	0.916600
0.912200	0.917850
0.912400	0.919680
0.912600	0.921120
0.912800	0.921500
0.913000	0.921790
0.913200	0.921790
0.913400	0.921310
0.913600	0.922080
0.913800	0.923230
0.914000	0.923810
0.914200	0.925250
0.914400	0.926980
0.914600	0.927750
0.914800	0.927270
0.915000	0.926790
0.915200	0.927170
0.915400	0.927560
0.915600	0.928130
0.915800	0.928420
0.916000	0.929290
0.916200	0.930250
0.916400	0.930920
0.916600	0.932460
0.916800	0.934380
0.917000	0.935720
0.917200	0.936690
0.917400	0.937070
0.917600	0.936010
0.917800	0.935630
0.918000	0.935340
0.918200	0.935820
0.918400	0.936880
0.918600	0.937840
0.918800	0.938030
0.919000	0.938700
0.919200	0.938990
0.919400	0.938990
0.919600	0.938610
0.919800	0.938700
0.920000	0.939570
0.920200	0.940050
0.920400	0.941200
0.920600	0.941870
0.920800	0.941970
0.921000	0.941780
0.921200	0.941590
0.921400	0.941590
0.921600	0.942350
0.921800	0.943220
0.922000	0.944080
0.922200	0.944850
0.922400	0.944560
0.922600	0.944370
0.922800	0.943890
0.923000	0.943990
0.923200	0.943990
0.923400	0.943700
0.923600	0.943990
0.923800	0.945040
0.924000	0.946100
0.924200	0.946390
0.924400	0.946580
0.924600	0.946680
0.924800	0.946770
0.925000	0.946770
0.925200	0.946390
0.925400	0.945720
0.925600	0.945530
0.925800	0.944470
0.926000	0.943890
0.926200	0.943700
0.926400	0.944760
0.926600	0.946200
0.926800	0.947250
0.927000	0.947540
0.927200	0.947740
0.927400	0.947160
0.927600	0.947160
0.927800	0.947160
0.928000	0.946770
0.928200	0.946200
0.928400	0.946100
0.928600	0.945620
0.928800	0.945330
0.929000	0.945430
0.929200	0.945530
0.929400	0.945140
0.929600	0.943800
0.929800	0.943510
0.930000	0.943120
0.930200	0.943890
0.930400	0.943700
0.930600	0.944370
0.930800	0.945330
0.931000	0.944950
0.931200	0.943990
0.931400	0.943220
0.931600	0.942930
0.931800	0.942450
0.932000	0.942160
0.932200	0.942830
0.932400	0.943410
0.932600	0.943800
0.932800	0.944180
0.933000	0.943700
0.933200	0.943890
0.933400	0.943510
0.933600	0.943220
0.933800	0.942260
0.934000	0.942160
0.934200	0.942260
0.934400	0.942740
0.934600	0.943220
0.934800	0.944080
0.935000	0.943220
0.935200	0.943320
0.935400	0.942740
0.935600	0.942070
0.935800	0.941200
0.936000	0.941110
0.936200	0.940620
0.936400	0.940140
0.936600	0.941300
0.936800	0.942160
0.937000	0.943410
0.937200	0.944370
0.937400	0.944560
0.937600	0.944560
0.937800	0.944660
0.938000	0.942740
0.938200	0.941490
0.938400	0.941390
0.938600	0.941300
0.938800	0.941870
0.939000	0.942740
0.939200	0.943320
0.939400	0.943030
0.939600	0.943120
0.939800	0.943700
0.940000	0.943800
0.940200	0.943320
0.940400	0.943700
0.940600	0.943600
0.940800	0.942930
0.941000	0.943120
0.941200	0.942930
0.941400	0.943320
0.941600	0.943120
0.941800	0.943410
0.942000	0.944180
0.942200	0.944370
0.942400	0.944470
0.942600	0.945040
0.942800	0.944950
0.943000	0.944560
0.943200	0.943890
0.943400	0.944180
0.943600	0.944180
0.943800	0.944850
0.944000	0.945240
0.944200	0.944950
0.944400	0.944660
0.944600	0.944660
0.944800	0.943990
0.945000	0.943800
0.945200	0.943320
0.945400	0.942450
0.945600	0.942640
0.945800	0.942450
0.946000	0.941200
0.946200	0.941590
0.946400	0.940820
0.946600	0.939860
0.946800	0.938900
0.947000	0.938410
0.947200	0.937650
0.947400	0.937550
0.947600	0.937450
0.947800	0.936780
0.948000	0.936200
0.948200	0.935050
0.948400	0.934090
0.948600	0.932550
0.948800	0.931210
0.949000	0.929860
0.949200	0.929190
0.949400	0.927560
0.949600	0.926690
0.949800	0.924960
0.950000	0.922940
0.950200	0.920930
0.950400	0.918810
0.950600	0.916510
0.950800	0.913240
0.951000	0.910740
0.951200	0.908340
0.951400	0.905840
0.951600	0.903730
0.951800	0.900750
0.952000	0.897960
0.952200	0.894690
0.952400	0.891710
0.952600	0.888540
0.952800	0.885280
0.953000	0.881720
0.953200	0.876920
0.953400	0.872880
0.953600	0.868370
0.953800	0.864330
0.954000	0.860100
0.954200	0.856260
0.954400	0.850780
0.954600	0.845110
0.954800	0.839350
0.955000	0.833200
0.955200	0.827430
0.955400	0.822240
0.955600	0.817440
0.955800	0.810130
0.956000	0.803410
0.956200	0.797450
0.956400	0.791490
0.956600	0.784670
0.956800	0.777660
0.957000	0.770740
0.957200	0.763050
0.957400	0.755360
0.957600	0.747680
0.957800	0.740470
0.958000	0.732780
0.958200	0.724810
0.958400	0.717310
0.958600	0.708950
0.958800	0.700500
0.959000	0.691660
0.959200	0.683100
0.959400	0.674070
0.959600	0.664460
0.959800	0.655620
0.960000	0.647170
0.960200	0.638900
0.960400	0.630060
0.960600	0.621610
0.960800	0.613050
0.961000	0.603250
0.961200	0.593160
0.961400	0.583360
0.961600	0.574040
0.961800	0.564620
0.962000	0.555590
0.962200	0.546370
0.962400	0.536660
0.962600	0.527630
0.962800	0.518310
0.963000	0.508410
0.963200	0.498230
0.963400	0.488710
0.963600	0.479300
0.963800	0.469400
0.964000	0.460560
0.964200	0.452100
0.964400	0.443840
0.964600	0.435860
0.964800	0.427310
0.965000	0.418950
0.965200	0.409820
0.965400	0.401180
0.965600	0.393300
0.965800	0.385420
0.966000	0.377540
0.966200	0.369470
0.966400	0.361870
0.966600	0.354570
0.966800	0.346980
0.967000	0.339770
0.967200	0.332280
0.967400	0.324980
0.967600	0.317580
0.967800	0.310850
0.968000	0.303930
0.968200	0.297300
0.968400	0.290770
0.968600	0.284710
0.968800	0.277890
0.969000	0.271360
0.969200	0.265210
0.969400	0.259540
0.969600	0.253680
0.969800	0.248490
0.970000	0.243010
0.970200	0.237250
0.970400	0.231480
0.970600	0.226480
0.970800	0.221300
0.971000	0.216200
0.971200	0.211780
0.971400	0.207170
0.971600	0.202560
0.971800	0.198330
0.972000	0.193620
0.972200	0.189390
0.972400	0.185360
0.972600	0.181230
0.972800	0.176900
0.973000	0.172480
0.973200	0.168540
0.973400	0.164790
0.973600	0.161050
0.973800	0.157110
0.974000	0.154030
0.974200	0.150670
0.974400	0.147110
0.974600	0.143460
0.974800	0.140000
0.975000	0.136930
0.975200	0.133850
0.975400	0.130870
0.975600	0.128180
0.975800	0.125400
0.976000	0.122900
0.976200	0.119920
0.976400	0.117040
0.976600	0.114350
0.976800	0.111850
0.977000	0.109450
0.977200	0.107140
0.977400	0.105030
0.977600	0.102720
0.977800	0.100220
0.978000	0.0979160
0.978200	0.0958110
0.978400	0.0934960
0.978600	0.0914970
0.978800	0.0894410
0.979000	0.0872400
0.979200	0.0852130
0.979400	0.0838000
0.979600	0.0816670
0.979800	0.0798800
0.980000	0.0781020
0.980200	0.0764400
0.980400	0.0750370
0.980600	0.0733170
0.980800	0.0714140
0.981000	0.0700690
0.981200	0.0683580
0.981400	0.0667150
0.981600	0.0652450
0.981800	0.0641590
0.982000	0.0628040
0.982200	0.0614880
0.982400	0.0601620
0.982600	0.0590670
0.982800	0.0578170
0.983000	0.0562610
0.983200	0.0549830
0.983400	0.0541660
0.983600	0.0528980
0.983800	0.0517730
0.984000	0.0507930
0.984200	0.0498900
0.984400	0.0489670
0.984600	0.0474110
0.984800	0.0465650
0.985000	0.0458450
0.985200	0.0450180
0.985400	0.0441530
0.985600	0.0431160
0.985800	0.0421260
0.986000	0.0411070
0.986200	0.0404630
0.986400	0.0395600
0.986600	0.0387050
0.986800	0.0383010
0.987000	0.0373600
0.987200	0.0366100
0.987400	0.0358700
0.987600	0.0353420
0.987800	0.0344390
0.988000	0.0339870
0.988200	0.0332860
0.988400	0.0325940
0.988600	0.0319790
0.988800	0.0314020
0.989000	0.0306820
0.989200	0.0302780
0.989400	0.0298070
0.989600	0.0292110
0.989800	0.0286540
0.993000	0.0231770
0.994000	0.0213320
0.995000	0.0194490
0.996000	0.0179400
0.997000	0.0164700
0.998000	0.0152490
0.999000	0.0139910
1.00000	0.0130300
1.00100	0.0120110
1.00200	0.0111940
1.00300	0.0103300
1.00400	0.00966670
1.00500	0.00897000
1.00600	0.00840400
1.00700	0.00779390
1.00800	0.00731240
1.00900	0.00682620
1.01000	0.00642460
1.01100	0.00601230
1.01200	0.00566350
1.01300	0.00531190
1.01400	0.00501400
1.01500	0.00469880
1.01600	0.00445760
1.01700	0.00421450
1.01800	0.00399540
1.01900	0.00376770
1.02000	0.00358420
1.02100	0.00338620
1.02200	0.00322570
1.02300	0.00305090
1.02400	0.00292110
1.02500	0.00276840
1.02600	0.00266270
1.02700	0.00251560
1.02800	0.00240510
1.02900	0.00230710
1.03000	0.00221970
1.03100	0.00210340
1.03200	0.00202850
1.03300	0.00194580
1.03400	0.00187180
1.03500	0.00178730
1.03600	0.00173150
1.03700	0.00165660
1.03800	0.00161240
1.03900	0.00154220
1.04000	0.00150190
1.04100	0.00143750
1.04200	0.00140200
1.04300	0.00135290
1.04400	0.00130680
1.04500	0.00127510
1.04600	0.00123670
1.04700	0.00120300
1.04800	0.00117520
1.04900	0.00113960
1.05000	0.00110890
1.05100	0.00108010
1.05200	0.00105700
1.05300	0.00101470
1.05400	0.00101570
1.05500	0.000986840
1.05600	0.000968590
1.05700	0.000937260
1.05800	0.000919100
1.05900	0.000906320
1.06000	0.000881820
1.06100	0.000863270
1.06200	0.000856350
1.06300	0.000837710
1.06400	0.000825220
1.06500	0.000812730
1.06600	0.000796300
1.06700	0.000796680
1.06800	0.000783520
1.06900	0.000771220
1.07000	0.000761510
1.07100	0.000760940
1.07200	0.000744120
1.07300	0.000732300
1.07400	0.000731920
1.07500	0.000718080
1.07600	0.000715970
1.07700	0.000719430
1.07800	0.000720100
1.07900	0.000700110
1.08000	0.000712800
1.08100	0.000707130
1.08200	0.000698380
1.08300	0.000707700
1.08400	0.000700590
1.08500	0.000699150
1.08600	0.000704630
1.08700	0.000705010
1.08800	0.000702230
1.08900	0.000695500
1.09000	0.000695980
1.09100	0.000695980
1.09200	0.000695980
1.09300	0.000695980
1.09400	0.000695980
1.09500	0.000695980
1.09600	0.000695980
1.09700	0.000695980
1.09800	0.000695980
1.09900	0.000695980
1.10000	0.000695980
