;  Table pcf850lpsys.tab  Mon 12:21:20 02-Jun-97
;      WAVELENGTH      THROUGHPUT
;       angstroms                
            7900.              0.
          7901.31     1.042059E-6
         7902.616     2.079584E-6
         7903.926     3.118827E-6
         7905.237     4.157049E-6
         7906.543     5.190768E-6
         7907.854     6.226156E-6
         7909.166     7.260926E-6
         7910.472     8.290438E-6
         7911.784     9.322767E-6
         7913.096     1.035332E-5
         7914.403     1.137939E-5
         7915.716     1.240790E-5
         7917.028     1.343501E-5
         7918.336     1.445726E-5
         7919.649     1.548194E-5
         7920.958     1.650178E-5
         7922.271     1.752404E-5
         7923.585     1.854490E-5
         7924.895     1.956131E-5
         7926.208     2.057975E-5
         7927.523     2.159714E-5
         7928.833     2.260975E-5
         7930.147     2.362434E-5
         7931.462     2.463795E-5
         7932.773     2.564675E-5
         7934.088     2.665794E-5
         7935.404     2.766770E-5
         7936.711     2.866972E-5
         7938.031     2.968043E-5
         7939.347     3.068639E-5
         7940.659     3.168797E-5
         7941.976     3.269191E-5
         7943.289     3.369109E-5
         7944.605     3.469223E-5
         7945.923     3.569233E-5
          7947.24     3.669105E-5
         7948.554     3.768541E-5
         7949.867     3.867838E-5
         7951.189     3.967662E-5
         7952.503     4.066722E-5
         7953.822     4.166010E-5
         7955.137     4.264830E-5
         7956.451     4.363509E-5
         7957.775     4.462746E-5
          7959.09     4.561185E-5
          7960.41     4.659852E-5
         7961.729     4.758381E-5
         7963.041     4.856155E-5
         7964.365     4.954734E-5
         7965.686     5.052919E-5
         7967.002     5.150641E-5
         7968.323     5.248548E-5
          7969.64     5.346028E-5
         7970.961     5.443696E-5
         7972.283     5.541263E-5
         7973.605     5.638693E-5
         7974.923     5.735695E-5
         7976.241     5.832559E-5
         7977.567     5.929930E-5
         7978.886     6.026555E-5
         7980.209     6.123399E-5
         7981.532     6.220074E-5
         7982.847     6.316043E-5
          7984.17     6.412512E-5
         7985.499     6.509165E-5
         7986.818     6.605040E-5
         7988.142     6.701130E-5
         7989.458     6.796481E-5
         7990.783     6.892336E-5
         7992.112     6.988370E-5
         7993.433     7.083669E-5
         7994.758     7.179180E-5
         7996.079     7.274205E-5
         7997.401     7.369159E-5
         7998.731     7.464572E-5
         8000.057     7.559475E-5
         8001.379     7.651894E-5
         8002.702     7.744123E-5
         8004.029     7.836497E-5
         8005.355     7.928647E-5
         8006.683     8.020669E-5
         8008.011     8.112499E-5
          8009.33     8.203529E-5
         8010.658     8.295010E-5
          8011.99     8.386600E-5
         8013.314     8.477394E-5
         8014.643     8.568331E-5
         8015.967     8.658806E-5
         8017.292     8.749091E-5
         8018.625     8.839783E-5
         8019.955     8.930012E-5
         8021.276     9.019495E-5
         8022.606     9.109347E-5
         8023.937     9.199073E-5
         8025.267     9.288570E-5
         8026.597     9.377910E-5
         8027.919     9.466503E-5
          8029.25     9.555494E-5
         8030.582     9.644294E-5
         8031.913     9.732935E-5
         8033.245     9.821414E-5
         8034.573     9.909413E-5
           8035.9     9.997222E-5
         8037.233     1.008516E-4
          8038.57     1.017320E-4
         8039.898     1.026046E-4
         8041.227     1.034761E-4
          8042.56     1.043482E-4
         8043.889     1.052158E-4
         8045.228     1.060875E-4
         8046.561     1.069542E-4
         8047.887     1.078139E-4
         8049.221     1.086773E-4
         8050.556     1.095389E-4
         8051.891     1.103989E-4
         8053.226     1.112571E-4
         8054.556     1.121104E-4
         8055.887     1.129622E-4
         8057.223     1.138152E-4
         8058.563     1.146691E-4
         8059.895     1.155154E-4
         8061.227     1.163603E-4
         8062.563     1.172060E-4
         8063.896     1.180474E-4
         8065.238     1.188927E-4
         8066.575     1.197330E-4
         8067.903     1.205662E-4
         8069.241     1.214033E-4
         8070.579     1.222386E-4
         8071.913     1.230692E-4
         8073.255     1.239038E-4
         8074.585     1.247285E-4
         8075.924     1.255568E-4
         8077.263     1.263831E-4
         8078.598     1.272052E-4
         8079.942     1.280308E-4
         8081.277     1.288494E-4
         8082.613     1.296662E-4
         8083.953     1.304837E-4
         8085.293     1.312997E-4
         8086.634     1.321141E-4
          8087.97     1.329239E-4
         8089.311     1.337344E-4
         8090.648     1.345408E-4
         8091.989     1.353479E-4
         8093.331     1.361534E-4
         8094.668     1.369545E-4
         8096.011     1.377565E-4
         8097.353     1.385567E-4
         8098.691     1.393526E-4
         8100.034     1.401492E-4
         8101.377     1.409441E-4
         8102.716     1.417348E-4
          8104.06     1.425264E-4
         8105.398     1.433133E-4
         8106.743     1.441014E-4
         8108.086     1.448874E-4
         8109.431     1.456721E-4
         8110.771     1.464521E-4
         8112.116     1.472331E-4
         8113.457     1.480099E-4
         8114.802     1.487874E-4
         8116.147     1.495633E-4
         8117.488     1.503344E-4
         8118.834     1.511069E-4
         8120.181     1.518774E-4
         8121.522     1.526436E-4
         8122.869     1.534107E-4
         8124.216     1.541760E-4
         8125.559     1.549371E-4
         8126.906     1.556989E-4
         8128.253     1.564591E-4
         8129.597     1.572149E-4
         8130.944     1.579713E-4
         8132.292     1.587262E-4
         8133.636     1.594768E-4
         8134.985     1.602282E-4
          8136.33     1.609756E-4
         8137.679     1.617235E-4
         8139.028     1.624695E-4
         8140.377     1.632141E-4
         8141.723     1.639543E-4
         8143.072     1.646951E-4
         8144.418     1.654319E-4
         8145.769     1.661695E-4
         8147.119     1.669053E-4
         8148.465     1.676368E-4
         8149.816     1.683691E-4
         8151.168     1.690998E-4
         8152.515     1.698260E-4
         8153.867     1.705533E-4
         8155.219     1.712787E-4
         8156.566     1.720000E-4
         8157.918     1.727216E-4
         8159.271     1.734420E-4
          8160.62     1.741579E-4
         8161.973     1.748746E-4
         8163.326     1.755897E-4
         8164.675     1.763007E-4
         8166.029     1.770121E-4
         8167.378     1.777196E-4
         8168.732     1.784275E-4
         8170.087     1.791339E-4
         8171.441     1.798384E-4
         8172.792     1.805392E-4
         8174.147     1.812403E-4
         8175.498     1.819375E-4
         8176.854     1.826352E-4
         8178.209     1.833310E-4
         8179.565     1.840253E-4
         8180.917     1.847157E-4
         8182.273     1.854065E-4
         8183.625     1.860933E-4
         8184.982     1.867807E-4
         8186.339     1.874663E-4
         8187.697     1.881503E-4
          8189.05     1.888301E-4
         8190.408     1.895107E-4
         8191.761     1.901872E-4
         8193.119     1.908641E-4
         8194.478     1.915395E-4
         8195.827     1.922085E-4
         8197.191     1.928831E-4
          8198.55     1.935529E-4
         8199.905     1.942194E-4
         8201.265     1.948861E-4
          8202.62     1.955490E-4
         8203.979     1.962120E-4
          8205.34     1.968736E-4
         8206.701     1.975339E-4
         8208.057     1.981895E-4
         8209.413     1.988437E-4
         8210.779     1.995009E-4
         8212.136     2.001516E-4
         8213.497     2.008028E-4
         8214.859     2.014526E-4
         8216.213     2.020965E-4
         8217.575     2.027427E-4
         8218.941     2.033888E-4
           8220.3     2.040295E-4
         8221.663     2.046707E-4
         8223.018     2.053060E-4
         8224.381     2.059436E-4
         8225.749     2.065816E-4
         8227.112     2.072155E-4
         8228.472     2.078458E-4
         8229.832     2.084747E-4
         8231.196     2.091037E-4
         8232.562     2.097313E-4
         8233.927     2.103571E-4
         8235.292     2.109811E-4
         8236.647     2.115988E-4
         8238.014     2.122196E-4
          8239.38     2.128386E-4
         8240.746     2.134558E-4
         8242.112     2.140712E-4
          8243.47     2.146808E-4
         8244.836     2.152926E-4
         8246.203     2.159030E-4
          8247.57     2.165116E-4
         8248.938     2.171188E-4
         8250.297     2.177199E-4
         8251.665     2.183236E-4
         8253.037     2.189271E-4
         8254.401     2.195255E-4
          8255.77     2.201238E-4
         8257.135     2.207189E-4
         8258.499     2.213118E-4
         8259.873     2.219072E-4
         8261.242     2.224987E-4
         8262.607     2.230868E-4
         8263.973     2.236730E-4
         8265.343     2.242595E-4
         8266.718     2.248463E-4
         8268.084     2.254276E-4
          8269.45     2.260070E-4
         8270.817     2.265852E-4
         8272.188     2.271633E-4
         8273.564     2.277415E-4
         8274.932     2.283144E-4
           8276.3     2.288858E-4
         8277.672     2.294570E-4
         8279.044     2.300265E-4
         8280.417     2.305946E-4
          8281.79     2.311609E-4
         8283.153     2.317215E-4
         8284.527     2.322847E-4
           8285.9     2.328456E-4
         8287.274     2.334053E-4
         8288.648     2.339630E-4
         8290.014     2.345154E-4
         8291.389     2.350702E-4
         8292.764     2.356231E-4
         8294.139     2.361742E-4
         8295.514     2.367235E-4
         8296.885     2.372695E-4
         8298.256     2.378137E-4
         8299.631     2.383577E-4
         8301.012     2.389022E-4
         8302.384     2.394416E-4
         8303.756     2.399792E-4
         8305.133     2.405169E-4
         8306.505     2.410509E-4
         8307.887     2.415870E-4
         8309.265     2.421197E-4
         8310.638     2.662353E-4
         8312.011     3.174609E-4
         8313.389     3.687479E-4
         8314.768     4.199502E-4
         8316.146     4.710314E-4
         8317.521     5.218112E-4
         8318.895     5.724713E-4
         8320.274     6.237551E-4
         8321.658     6.771936E-4
         8323.029     7.300156E-4
         8324.409     7.830500E-4
         8325.789     8.359572E-4
         8327.165     8.885887E-4
         8328.551     9.414662E-4
         8329.927     9.938448E-4
         8331.304     0.001061537
         8332.685     0.001130124
         8334.066     0.001198595
         8335.443      0.00126666
         8336.825     0.001334801
         8338.203     0.001402584
         8339.586     0.001470444
         8340.969     0.001541191
         8342.352     0.001613069
          8343.73     0.001684569
         8345.113     0.001756097
         8346.493       0.0018273
         8347.877     0.001898529
         8349.261     0.001969583
         8350.646     0.002049542
         8352.025     0.002139412
         8353.405      0.00222919
          8354.79     0.002319194
         8356.176      0.00240917
         8357.562     0.002499053
         8358.942     0.002588528
         8360.328     0.002679081
         8361.715     0.002772362
         8363.097     0.002865218
         8364.483     0.002958306
          8365.87     0.003051296
         8367.252     0.003143862
          8368.64     0.003236724
         8370.022     0.003329569
          8371.41     0.003447421
         8372.799     0.003565233
         8374.187     0.003682837
          8375.57     0.003799988
         8376.959     0.003917425
         8378.344      0.00403441
         8379.732     0.004151599
         8381.122     0.004265191
         8382.512     0.004377814
         8383.897         0.00449
         8385.287     0.004602381
         8386.673     0.004714323
         8388.063     0.004826539
         8389.454     0.004938631
         8390.841     0.005069928
         8392.231     0.005214228
         8393.623     0.005358473
         8395.011     0.005502158
         8396.402     0.005646088
         8397.795     0.005789963
         8399.188     0.005933677
         8400.575     0.006074938
         8401.963     0.006213512
         8403.356     0.006352516
          8404.75     0.006491365
         8406.144     0.006630058
         8407.532     0.006768112
         8408.927     0.006906591
         8410.316     0.007048728
         8411.711     0.007205829
         8413.105     0.007362754
           8414.5       0.0075195
         8415.891     0.007675631
         8417.286     0.007832128
         8418.677     0.007987904
         8420.073     0.008144503
         8421.469      0.00830709
          8422.86     0.008469036
         8424.258     0.008631475
         8425.654     0.008793614
         8427.047     0.008955109
         8428.443     0.009116872
         8429.841     0.009278559
         8431.239     0.009453033
         8432.632     0.009628218
          8434.03     0.009803934
         8435.424     0.009978831
         8436.823      0.01015426
         8438.222      0.01032935
         8439.616      0.01050375
         8441.016      0.01067866
          8442.41       0.0108528
         8443.811      0.01102746
          8445.21      0.01120179
          8446.61      0.01137603
         8448.007      0.01154957
         8449.407      0.01172338
         8450.804      0.01190899
         8452.205      0.01210425
         8453.606      0.01229927
         8455.008      0.01249406
         8456.405      0.01268806
         8457.803      0.01288183
         8459.205      0.01307604
         8460.607      0.01326472
          8462.01      0.01344626
         8463.404      0.01362657
         8464.808      0.01380779
         8466.216       0.0139894
         8467.614      0.01416954
         8469.019      0.01435019
         8470.418       0.0145359
         8471.817      0.01473523
         8473.228      0.01493583
         8474.627      0.01513465
         8476.032      0.01533405
         8477.434      0.01553265
         8478.839      0.01573154
         8480.245      0.01592844
          8481.65      0.01611605
         8483.057      0.01630355
         8484.454      0.01648964
         8485.861      0.01667679
         8487.272       0.0168642
         8488.676      0.01705034
         8490.083      0.01723769
         8491.485      0.01743912
         8492.889      0.01764043
         8494.302      0.01784287
          8495.71      0.01804434
         8497.114      0.01824499
         8498.519      0.01844537
         8499.928      0.01864619
         8501.337      0.01882998
         8502.746      0.01901261
         8504.156      0.01919511
         8505.557      0.01937608
         8506.967      0.01955807
         8508.378      0.01973991
         8509.788      0.01992137
         8511.199      0.02011795
         8512.602      0.02031571
         8514.013      0.02051442
         8515.429      0.02071353
         8516.836      0.02091111
         8518.244      0.02110856
         8519.651      0.02130557
         8521.064      0.02148831
         8522.481      0.02166642
          8523.89      0.02184316
         8525.299      0.02201976
         8526.712      0.02219659
         8528.126      0.02237327
          8529.54      0.02254969
         8530.954      0.02273086
         8532.364      0.02291367
         8533.774      0.02309621
         8535.188      0.02327898
         8536.608      0.02346222
          8538.02      0.02364405
         8539.431      0.02382561
         8540.842      0.02399502
         8542.258       0.0241567
         8543.679      0.02431868
         8545.091       0.0244794
         8546.503      0.02463988
          8547.92      0.02480066
         8549.337      0.02496117
         8550.755      0.02512716
         8552.173       0.0252978
         8553.581        0.025467
         8554.999      0.02563711
         8556.418      0.02580706
         8557.837      0.02597673
         8559.256      0.02614614
          8560.67      0.02630632
         8562.085      0.02645707
         8563.504      0.02660799
         8564.924      0.02675875
         8566.345      0.02690937
          8567.76      0.02705911
         8569.176      0.02720872
         8570.597      0.02735858
         8572.022      0.02750871
         8573.438      0.02765755
         8574.855      0.02780624
         8576.277       0.0279552
         8577.694      0.02810339
         8579.122      0.02825244
         8580.539      0.02839151
         8581.957      0.02851642
         8583.381      0.02864161
         8584.804      0.02876649
         8586.231      0.02889158
         8587.646      0.02901524
         8589.069      0.02913953
         8590.494      0.02926718
         8591.913      0.02940064
         8593.343      0.02953486
         8594.758      0.02966746
         8596.184      0.02980084
         8597.608      0.02993387
         8599.034      0.03006675
          8600.46      0.03019351
         8601.876       0.0303069
         8603.303      0.03042094
         8604.729      0.03053476
         8606.156      0.03064836
         8607.583      0.03076174
         8609.005      0.03087451
         8610.428       0.0309891
         8611.855      0.03110848
         8613.283      0.03122762
         8614.712      0.03134661
         8616.136      0.03146495
         8617.563       0.0315834
         8618.988      0.03170137
         8620.417      0.03181506
         8621.847      0.03191801
         8623.276      0.03202076
         8624.701      0.03212294
         8626.126       0.0322249
         8627.557      0.03232707
         8628.992      0.03242938
         8630.418      0.03253124
         8631.849      0.03263433
         8633.275      0.03273693
         8634.702      0.03283931
         8636.134      0.03294183
         8637.565      0.03304412
         8638.998      0.03314627
         8640.426        0.033241
         8641.858       0.0333197
         8643.291      0.03339821
         8644.719      0.03347627
         8646.152      0.03355447
         8647.586      0.03363248
         8649.016      0.03371009
         8650.449      0.03379091
         8651.879      0.03387826
         8653.313      0.03396569
         8654.748      0.03405292
         8656.183      0.03413993
         8657.618       0.0342268
         8659.044      0.03431287
         8660.479      0.03439352
         8661.916      0.03446246
         8663.353      0.03453121
         8664.788      0.03459973
         8666.221      0.03466794
         8667.652      0.03473591
          8669.09      0.03480398
         8670.527      0.03487182
         8671.965      0.03493939
         8673.397      0.03500654
         8674.836      0.03507379
          8676.27      0.03514062
         8677.708       0.0352075
         8679.146      0.03527419
         8680.586      0.03533918
         8682.021      0.03540153
         8683.455      0.03546369
         8684.895      0.03552588
         8686.335      0.03558793
         8687.775      0.03564981
         8689.216       0.0357115
         8690.646      0.03576968
         8692.088      0.03582457
         8693.529      0.03587928
         8694.971      0.03593383
         8696.412       0.0359882
         8697.845      0.03604208
         8699.291      0.03609629
         8700.733      0.03614948
         8702.172       0.0362017
         8703.614      0.03625388
         8705.053      0.03630575
         8706.496      0.03635763
         8707.939      0.03640933
         8709.384      0.03646091
         8710.823      0.03650643
         8712.263      0.03654755
         8713.712      0.03658878
         8715.156      0.03662971
         8716.597      0.03667039
         8718.037      0.03671091
         8719.482      0.03675142
         8720.929       0.0367896
         8722.374      0.03682639
          8723.82      0.03686306
         8725.263      0.03689948
         8726.704      0.03693572
         8728.151      0.03697196
         8729.599      0.03700805
         8731.046      0.03704369
         8732.488      0.03707897
         8733.932       0.0371141
          8735.38      0.03714921
         8736.828      0.03718415
         8738.276      0.03721895
         8739.726      0.03725363
         8741.165      0.03727719
         8742.619       0.0372983
         8744.064      0.03731916
         8745.514      0.03733994
         8746.964      0.03736061
         8748.404      0.03738101
          8749.86      0.03740151
         8751.306      0.03743187
         8752.757      0.03746329
         8754.208      0.03749457
          8755.65      0.03752549
         8757.111      0.03755668
         8758.559      0.03758742
         8760.006      0.03761795
         8761.459      0.03763556
         8762.906      0.03765298
         8764.364      0.03767039
         8765.813      0.03768756
         8767.266      0.03770466
         8768.715      0.03772158
         8770.164      0.03773763
         8771.623      0.03774776
         8773.077      0.03775772
         8774.527      0.03776756
         8775.977      0.03777726
         8777.433       0.0377869
         8778.888      0.03779642
         8780.343      0.03780631
         8781.789      0.03781763
         8783.245      0.03782891
         8784.701      0.03784006
         8786.158       0.0378511
         8787.615      0.03786202
         8789.063      0.03787274
          8790.52      0.03788324
         8791.978      0.03789327
         8793.435      0.03790318
         8794.893      0.03791296
         8796.347      0.03792261
         8797.805      0.03793216
         8799.259      0.03794155
         8800.723      0.03794656
         8802.177      0.03794701
         8803.632      0.03794734
         8805.091      0.03794757
         8806.546       0.0379477
         8808.012      0.03794772
         8809.467      0.03794763
         8810.928       0.0379448
         8812.389      0.03794036
          8813.84      0.03793585
         8815.311      0.03793117
         8816.763      0.03792645
         8818.225       0.0379216
         8819.687      0.03791667
         8821.145      0.03790699
         8822.612      0.03789588
         8824.065      0.03788478
         8825.528      0.03787353
         8826.991      0.03786219
         8828.455      0.03785076
         8829.919      0.03783923
         8831.378      0.03783938
         8832.837      0.03784011
         8834.302      0.03784072
         8835.767      0.03784122
         8837.231      0.03784161
         8838.692      0.03784188
         8840.152      0.03784075
         8841.618      0.03782842
         8843.085      0.03781599
         8844.551      0.03780349
         8846.018      0.03779088
         8847.475      0.03777827
         8848.941      0.03776547
         8850.408      0.03775017
         8851.876      0.03772844
         8853.344      0.03770665
         8854.807      0.03768486
         8856.274      0.03766292
         8857.738      0.03764097
         8859.212      0.03761879
         8860.676      0.03760209
         8862.146      0.03759156
         8863.609      0.03758098
         8865.079      0.03757024
         8866.549      0.03755942
         8868.015      0.03754853
         8869.484      0.03753751
         8870.955      0.03752248
         8872.421      0.03750531
         8873.897      0.03748793
         8875.358      0.03747065
          8876.83      0.03745316
         8878.302      0.03743557
         8879.774      0.03741791
         8881.247      0.03740405
         8882.709       0.0373909
         8884.183      0.03737755
         8885.655       0.0373641
         8887.129      0.03735057
         8888.603      0.03733694
         8890.071      0.03732267
          8891.54      0.03729706
         8893.015      0.03727126
         8894.489       0.0372454
         8895.964      0.03721946
         8897.434      0.03719354
         8898.909      0.03716745
          8900.38      0.03714468
         8901.855      0.03713123
         8903.331      0.03711768
         8904.808      0.03710402
         8906.279      0.03709032
         8907.751       0.0370765
         8909.228      0.03706256
         8910.705      0.03704195
         8912.183      0.03701412
          8913.66      0.03698622
         8915.133      0.03695833
         8916.606      0.03693038
         8918.085      0.03690225
         8919.563      0.03687405
         8921.043       0.0368461
         8922.517      0.03681835
         8923.996      0.03679041
         8925.476       0.0367624
         8926.951      0.03673439
         8928.431      0.03670624
         8929.906      0.03667809
         8931.387       0.0366526
         8932.868      0.03662721
         8934.344      0.03660184
         8935.825      0.03657629
         8937.303      0.03655074
         8938.789      0.03652495
         8940.271       0.0364976
         8941.743       0.0364636
         8943.227      0.03642927
         8944.709      0.03639489
         8946.192      0.03636044
         8947.676      0.03632592
         8949.154      0.03629147
         8950.633      0.03625816
         8952.117      0.03622629
         8953.602      0.03619436
         8955.086      0.03616236
         8956.565       0.0361304
         8958.051      0.03609825
         8959.531      0.03606613
         8961.017      0.03603755
         8962.503       0.0360106
         8963.988      0.03598358
          8965.47      0.03595655
         8966.951      0.03592945
         8968.438      0.03590215
         8969.926      0.03587478
         8971.413      0.03583018
           8972.9      0.03578465
         8974.378      0.03573938
         8975.866      0.03569375
         8977.354      0.03564807
         8978.843      0.03560238
         8980.331      0.03556132
         8981.811      0.03553673
         8983.305      0.03551178
         8984.794      0.03548685
         8986.279      0.03546187
          8987.77      0.03543673
         8989.254       0.0354116
         8990.745      0.03537986
         8992.235      0.03534167
         8993.727      0.03530338
         8995.213      0.03526518
         8996.699      0.03522692
         8998.196      0.03518832
         8999.688      0.03514982
         9001.175       0.0351064
         9002.663      0.03506161
         9004.155      0.03501667
         9005.648      0.03497168
         9007.142      0.03492667
         9008.635      0.03488163
         9010.119      0.03483842
         9011.612      0.03481321
         9013.106       0.0347879
         9014.602      0.03476252
         9016.096      0.03473707
         9017.586      0.03471161
         9019.076      0.03468608
         9020.571      0.03465848
         9022.067      0.03462774
         9023.563      0.03459693
         9025.055      0.03456616
         9026.546      0.03453533
         9028.047      0.03450423
         9029.539      0.03447325
         9031.036      0.03443722
         9032.528      0.03439908
         9034.021      0.03436088
         9035.524      0.03432238
         9037.018      0.03428409
         9038.516      0.03424563
          9040.01      0.03420725
         9041.504      0.03417367
         9043.013       0.0341397
         9044.507      0.03410602
         9046.002      0.03407223
         9047.502       0.0340383
         9048.997      0.03400441
         9050.502      0.03396954
         9051.998      0.03393343
         9053.493      0.03389728
         9054.995      0.03386092
         9056.491      0.03382464
         9057.998      0.03378804
           9059.5      0.03375152
         9060.991      0.03370826
         9062.494      0.03366109
         9063.997       0.0336139
           9065.5      0.03356668
         9066.998      0.03351959
         9068.496      0.03347247
            9070.      0.03342515
         9071.504      0.03339063
         9073.008      0.03335605
         9074.512      0.03332141
         9076.007      0.03328692
         9077.512      0.03325215
         9079.017       0.0332173
         9080.521      0.03318034
         9082.027      0.03313942
         9083.528      0.03309859
         9085.034      0.03305759
         9086.536      0.03301664
         9088.048      0.03297538
         9089.549      0.03293438
         9091.052      0.03289336
         9092.559       0.0328522
         9094.062      0.03281112
         9095.574      0.03276972
         9097.077      0.03272855
         9098.586      0.03268716
         9100.094      0.03264608
         9101.598      0.03260993
         9103.112      0.03257347
         9104.611       0.0325373
         9106.121      0.03250083
         9107.631       0.0324643
         9109.141      0.03242771
         9110.651      0.03238685
         9112.152      0.03234073
         9113.663      0.03229428
         9115.174       0.0322478
         9116.686      0.03220125
         9118.197      0.03215468
         9119.704      0.03210821
         9121.211      0.03206591
         9122.723      0.03202443
         9124.235      0.03198288
         9125.749      0.03194127
         9127.257      0.03189976
         9128.765      0.03185821
         9130.278      0.03181662
         9131.792      0.03177574
         9133.307      0.03173479
         9134.821      0.03169378
          9136.33      0.03165289
          9137.84      0.03161191
         9139.355      0.03157073
         9140.871      0.03152471
         9142.387      0.03147512
         9143.902       0.0314255
         9145.413      0.03137601
         9146.925      0.03132647
         9148.446      0.03127659
         9149.958      0.03122699
         9151.476      0.03119083
         9152.987      0.03115514
         9154.505      0.03111923
         9156.023      0.03108324
         9157.536      0.03104732
         9159.055      0.03101118
         9160.573      0.03096869
         9162.087      0.03091597
         9163.611      0.03086285
          9165.12      0.03081026
          9166.64      0.03075728
          9168.16      0.03070424
          9169.68      0.03065123
         9171.195      0.03060808
         9172.711      0.03056748
         9174.231      0.03052671
         9175.753      0.03048584
         9177.274      0.03044493
         9178.796      0.03040394
         9180.313       0.0303616
          9181.83      0.03031361
         9183.353      0.03026542
         9184.875       0.0302172
         9186.398      0.03016892
         9187.916      0.03012078
         9189.439      0.03007243
         9190.958      0.03002729
         9192.482      0.02998373
         9194.006      0.02994015
          9195.53      0.02989649
          9197.05      0.02985292
          9198.57      0.02980926
         9200.096      0.02976518
         9201.621       0.0297175
         9203.146      0.02966979
         9204.672      0.02962202
         9206.188       0.0295745
         9207.715      0.02952664
         9209.241      0.02947873
         9210.769       0.0294329
         9212.296      0.02938911
         9213.813      0.02934558
         9215.346      0.02930152
         9216.868      0.02925772
         9218.396      0.02921369
         9219.925      0.02916962
         9221.449      0.02912641
         9222.978      0.02908307
         9224.507      0.02903966
         9226.031      0.02899633
         9227.562      0.02895277
         9229.086      0.02890933
         9230.621      0.02886245
         9232.152      0.02881116
         9233.673      0.02876019
         9235.203      0.02870887
         9236.734      0.02865748
         9238.267      0.02860603
         9239.798      0.02855458
          9241.33      0.02850567
         9242.853      0.02845741
         9244.385      0.02840882
         9245.917      0.02836018
          9247.45      0.02831146
         9248.983       0.0282627
         9250.513      0.02821272
         9252.041      0.02816014
         9253.575      0.02810734
         9255.109       0.0280545
         9256.644      0.02800164
         9258.174      0.02794889
         9259.703      0.02789614
         9261.239       0.0278503
         9262.774      0.02780613
         9264.311      0.02776187
         9265.847      0.02771756
         9267.372       0.0276735
         9268.909      0.02762903
         9270.446      0.02758094
         9271.983      0.02752408
         9273.521      0.02746721
         9275.048      0.02741069
         9276.596      0.02735339
         9278.129      0.02729661
         9279.662      0.02723982
           9281.2      0.02718549
         9282.734      0.02713202
         9284.278      0.02707818
         9285.808      0.02702482
         9287.348      0.02697107
         9288.888      0.02691728
         9290.423      0.02686692
         9291.968      0.02682486
         9293.504      0.02678297
         9295.039      0.02674104
         9296.586      0.02669871
         9298.122      0.02665659
         9299.663      0.02661428
           9301.2      0.02655811
         9302.742      0.02649786
         9304.285      0.02643755
         9305.822      0.02637748
         9307.365      0.02631718
         9308.909      0.02625683
         9310.452      0.02620112
         9311.985      0.02615677
         9313.529      0.02611206
         9315.079      0.02606709
         9316.618      0.02602238
         9318.163      0.02597743
         9319.708      0.02593241
         9321.243      0.02587779
         9322.789      0.02582045
         9324.334      0.02576313
         9325.881      0.02570571
         9327.427      0.02564832
         9328.968      0.02559109
         9330.515      0.02553801
         9332.057      0.02549379
         9333.604      0.02544934
         9335.151      0.02540484
         9336.694      0.02536038
         9338.242      0.02531572
         9339.786      0.02527109
         9341.334      0.02521437
         9342.883       0.0251557
         9344.427      0.02509719
         9345.977      0.02503845
         9347.521      0.02497991
         9349.071      0.02492111
         9350.621      0.02486497
         9352.171      0.02481273
         9353.717      0.02476059
         9355.263       0.0247084
         9356.813        0.024656
         9358.365      0.02460353
         9359.917      0.02455102
         9361.469      0.02450269
         9363.021      0.02445454
         9364.563      0.02440659
         9366.116      0.02435828
         9367.669      0.02430991
         9369.222      0.02426148
         9370.775      0.02420848
         9372.329      0.02415095
         9373.873      0.02409377
         9375.427      0.02403619
         9376.981      0.02397856
         9378.536      0.02392091
         9380.092      0.02386312
         9381.646        0.023804
         9383.197      0.02374502
         9384.748      0.02368602
         9386.304      0.02362683
          9387.86      0.02356758
         9389.417      0.02350831
         9390.968      0.02345589
         9392.525       0.0234072
         9394.077      0.02335862
         9395.635       0.0233098
         9397.188      0.02326106
         9398.746      0.02321208
         9400.305       0.0231609
         9401.857      0.02310111
         9403.417      0.02304106
         9404.971      0.02298122
          9406.53      0.02292113
          9408.09      0.02286104
         9409.645      0.02280111
         9411.204      0.02274631
         9412.765        0.022693
         9414.325      0.02263964
         9415.882      0.02258637
         9417.438      0.02253307
         9418.999      0.02247954
         9420.561      0.02242687
         9422.123      0.02237574
         9423.685      0.02232458
         9425.247      0.02227333
           9426.8      0.02222233
         9428.362      0.02217096
         9429.926       0.0221195
         9431.489      0.02206224
         9433.054      0.02200463
         9434.617      0.02194703
         9436.177      0.02188954
         9437.736      0.02183202
         9439.301      0.02177429
         9440.866       0.0217173
         9442.432      0.02166092
         9443.991      0.02160471
         9445.558      0.02154822
         9447.118       0.0214919
         9448.685      0.02143534
         9450.251      0.02137844
         9451.813      0.02132009
          9453.38      0.02126158
         9454.947        0.021203
          9456.51      0.02114457
         9458.078       0.0210859
         9459.642      0.02102739
          9461.21      0.02097488
         9462.778      0.02092415
         9464.342      0.02087351
         9465.911       0.0208226
          9467.48      0.02077163
         9469.046       0.0207207
         9470.615      0.02066671
         9472.181      0.02060839
         9473.751      0.02054985
         9475.322      0.02049124
         9476.893      0.02043263
         9478.459      0.02037414
         9480.025      0.02031558
         9481.598      0.02025382
         9483.169       0.0201921
         9484.742      0.02013028
         9486.314      0.02006849
         9487.888      0.02000664
          9489.45       0.0199452
         9491.023      0.01988754
         9492.597      0.01983208
         9494.171      0.01977654
         9495.745      0.01972094
         9497.319       0.0196653
         9498.889      0.01960978
         9500.459       0.0195576
         9502.034      0.01951359
         9503.609       0.0194696
         9505.186       0.0194256
         9506.756      0.01938177
         9508.332      0.01933778
         9509.903      0.01929395
          9511.48      0.01924864
         9513.058      0.01920327
          9514.63      0.01915805
         9516.207      0.01911272
         9517.785      0.01906737
         9519.357      0.01902222
         9520.937      0.01897598
          9522.51      0.01892932
         9524.089      0.01888252
         9525.668      0.01883574
         9527.242      0.01878913
         9528.821      0.01874241
         9530.401      0.01869663
         9531.977      0.01865377
         9533.557      0.01861079
         9535.133      0.01856792
         9536.713      0.01852497
         9538.295      0.01848196
         9539.876      0.01843899
         9541.447      0.01839466
         9543.029       0.0183499
         9544.611      0.01830516
         9546.194      0.01826042
         9547.777      0.01821569
          9549.36      0.01817098
         9550.943      0.01812894
         9552.517      0.01808897
         9554.101      0.01804871
         9555.685      0.01800846
         9557.269      0.01796819
         9558.854       0.0179279
         9560.438      0.01788421
         9562.019      0.01783183
         9563.599      0.01777951
         9565.185      0.01772705
         9566.771      0.01767465
         9568.356      0.01762231
         9569.938      0.01757018
         9571.524      0.01752795
         9573.106      0.01748627
         9574.693      0.01744447
         9576.281      0.01740264
         9577.863      0.01736097
         9579.451      0.01731915
         9581.034      0.01727755
         9582.623      0.01723584
         9584.212      0.01719414
         9585.796      0.01715256
         9587.386      0.01711084
          9588.97      0.01706928
          9590.56      0.01702609
         9592.149      0.01698021
          9593.74      0.01693431
         9595.325      0.01688862
         9596.911      0.01684293
         9598.503      0.01679709
         9600.094      0.01675134
         9601.686      0.01670601
         9603.277      0.01666071
         9604.859      0.01661572
         9606.452      0.01657044
         9608.045      0.01652519
         9609.638      0.01647996
         9611.231      0.01643594
         9612.825       0.0163923
         9614.419      0.01634867
         9616.002      0.01630534
         9617.597      0.01626172
         9619.191      0.01621812
         9620.786       0.0161752
         9622.382      0.01613298
         9623.977      0.01609079
         9625.567       0.0160487
         9627.158      0.01600664
         9628.754      0.01596444
         9630.351      0.01592181
         9631.947      0.01587768
         9633.539       0.0158337
         9635.137      0.01578958
         9636.729      0.01574565
         9638.326      0.01570157
         9639.925      0.01565748
         9641.518       0.0156148
         9643.116      0.01557202
          9644.71       0.0155294
         9646.309      0.01548665
         9647.908      0.01544389
         9649.503      0.01540127
         9651.103      0.01535775
         9652.697      0.01531403
         9654.298      0.01527016
         9655.898      0.01522631
           9657.5      0.01518246
         9659.096      0.01513879
         9660.692      0.01509449
         9662.294      0.01504927
         9663.896      0.01500408
         9665.498      0.01495888
         9667.101      0.01491372
         9668.704      0.01486856
         9670.296      0.01482318
         9671.899      0.01477495
         9673.503      0.01472677
         9675.107      0.01467861
         9676.711      0.01463052
         9678.315      0.01458245
          9679.91      0.01453472
         9681.515      0.01449696
          9683.12      0.01445975
         9684.726      0.01442253
         9686.331      0.01438529
         9687.933      0.01434813
         9689.538      0.01431086
          9691.14      0.01426975
         9692.746      0.01422695
         9694.354      0.01418413
         9695.956      0.01414146
         9697.563      0.01409868
         9699.171      0.01405591
         9700.774      0.01401174
         9702.383      0.01396584
         9703.986      0.01392011
         9705.595      0.01387428
         9707.204      0.01382845
         9708.809       0.0137828
         9710.418      0.01373851
         9712.022      0.01369849
         9713.633      0.01365833
         9715.244      0.01361815
          9716.85      0.01357811
          9718.46      0.01353795
         9720.071      0.01349743
         9721.684      0.01344963
          9723.29      0.01340204
         9724.896      0.01335451
         9726.509      0.01330685
         9728.122      0.01325922
         9729.734      0.01321166
         9731.348      0.01316801
         9732.962      0.01312514
         9734.564      0.01308259
         9736.179      0.01303975
         9737.793      0.01299693
         9739.407      0.01295413
         9741.022      0.01291194
         9742.638      0.01287013
         9744.242      0.01282861
         9745.858       0.0127868
         9747.474      0.01274503
          9749.09      0.01270324
         9750.706       0.0126613
         9752.317      0.01261931
         9753.935      0.01257717
         9755.547      0.01253517
         9757.164      0.01249306
         9758.782      0.01245094
         9760.395      0.01240908
         9762.013      0.01236733
         9763.632      0.01232557
         9765.245      0.01228397
         9766.864      0.01224224
         9768.479      0.01220064
         9770.098       0.0121586
         9771.718       0.0121115
         9773.333       0.0120646
         9774.953      0.01201761
         9776.568       0.0119708
         9778.189      0.01192388
         9779.811      0.01187702
         9781.427       0.0118348
         9783.049      0.01179304
         9784.671      0.01175129
         9786.293      0.01170956
          9787.91      0.01166796
         9789.528      0.01162636
         9791.151       0.0115828
         9792.774      0.01153852
         9794.398      0.01149425
         9796.022      0.01145001
         9797.646      0.01140581
         9799.261       0.0113619
         9800.885      0.01131683
          9802.51        0.011271
         9804.136      0.01122518
         9805.761      0.01117944
         9807.387      0.01113372
         9809.008      0.01108818
         9810.629      0.01104454
         9812.255      0.01100371
         9813.882      0.01096287
          9815.51      0.01092202
         9817.132      0.01088133
         9818.759      0.01084052
         9820.382      0.01079906
          9822.01      0.01075501
         9823.639      0.01071098
         9825.262      0.01066713
         9826.891      0.01062317
         9828.515      0.01057938
         9830.145      0.01053532
         9831.774      0.01048992
         9833.399       0.0104447
         9835.029      0.01039939
         9836.655      0.01035424
         9838.286        0.010309
         9839.917      0.01026381
         9841.549      0.01022384
         9843.175       0.0101843
         9844.802      0.01014473
         9846.435      0.01010503
         9848.066      0.01006535
         9849.699      0.01002565
         9851.333     0.009982879
         9852.955      0.00993976
         9854.589     0.009896366
         9856.223     0.009853008
         9857.857     0.009809662
         9859.491     0.009766377
         9861.126     0.009724522
         9862.762     0.009683305
         9864.386     0.009642402
         9866.021     0.009601218
         9867.657     0.009560057
         9869.293     0.009518913
          9870.93     0.009476845
         9872.566     0.009434109
         9874.198     0.009391534
          9875.83     0.009348991
         9877.467     0.009306351
         9879.104     0.009263722
         9880.743     0.009221449
         9882.376     0.009179774
         9884.015     0.009137976
         9885.647     0.009096352
         9887.287     0.009054581
         9888.926     0.009012861
         9890.561     0.008970773
           9892.2     0.008927651
         9893.835     0.008884694
         9895.476     0.008841625
         9897.116     0.008798595
         9898.752     0.008755734
         9900.393      0.00871279
         9902.029     0.008670012
         9903.671     0.008627145
         9905.313     0.008584292
         9906.955     0.008541504
         9908.593     0.008498859
          9910.23     0.008456376
         9911.873     0.008414562
         9913.517     0.008372754
          9915.16     0.008330977
         9916.805     0.008289207
         9918.438     0.008247766
         9920.082     0.008206094
         9921.728     0.008165104
         9923.372     0.008124162
         9925.018     0.008083222
         9926.663     0.008042306
         9928.309     0.008001411
         9929.944     0.007960786
         9931.591     0.007919032
         9933.237     0.007877278
         9934.885     0.007835535
         9936.531     0.007793852
          9938.18      0.00775215
         9939.821     0.007710657
         9941.464     0.007669457
         9943.112     0.007628177
         9944.761     0.007586926
          9946.41      0.00754568
         9948.054     0.007504613
         9949.703     0.007463427
         9951.348     0.007422567
         9952.997     0.007381649
         9954.647     0.007340736
         9956.293     0.007299972
         9957.943     0.007259117
         9959.589     0.007218408
          9961.24     0.007176502
         9962.893     0.007134257
         9964.539     0.007092207
          9966.19     0.007050079
         9967.838     0.007008092
          9969.49     0.006966027
         9971.144     0.006926055
         9972.797     0.006887021
         9974.444     0.006848135
         9976.093     0.006809237
         9977.747     0.006770209
         9979.401     0.006731191
         9981.057     0.006690716
         9982.711     0.006649481
         9984.355     0.006608528
         9986.011     0.006567344
         9987.667     0.006526172
         9989.322     0.006485063
         9990.979     0.006444101
         9992.636     0.006403241
         9994.292     0.006362441
         9995.938     0.006321915
         9997.596     0.006281161
         9999.253     0.006240441
         10000.91     0.006209645
         10002.57     0.006187008
         10004.22     0.006164543
         10005.89     0.006141801
         10007.54     0.006119378
         10009.19     0.006096837
         10010.85     0.006074413
          10012.5     0.006052236
         10014.17     0.006029794
         10015.82     0.006007668
         10017.48     0.005985424
         10019.14     0.005963194
         10020.79     0.005940884
         10022.47     0.005918032
         10024.12     0.005895515
         10025.78     0.005872869
         10027.44     0.005850254
         10029.09     0.005827817
         10030.77      0.00580424
         10032.42     0.005780046
         10034.08     0.005755713
         10035.75     0.005731437
         10037.41     0.005707193
         10039.08     0.005682993
         10040.73     0.005659993
         10042.39     0.005638179
         10044.06     0.005616378
         10045.72     0.005594593
         10047.39     0.005572845
         10049.06     0.005551111
         10050.72     0.005528959
         10052.38     0.005506386
         10054.04     0.005483716
         10055.71     0.005461068
         10057.38      0.00543844
         10059.05     0.005415862
         10060.71     0.005392801
         10062.37     0.005369258
         10064.04     0.005345607
         10065.71     0.005321987
         10067.38     0.005298413
         10069.05     0.005274883
         10070.72     0.005252429
         10072.38      0.00523153
         10074.04     0.005210521
         10075.71     0.005189537
         10077.39     0.005168565
         10079.06     0.005147618
         10080.72     0.005126403
          10082.4     0.005104359
         10084.06     0.005082645
         10085.73      0.00506081
          10087.4     0.005038994
         10089.07     0.005017366
         10090.75     0.004995394
         10092.41      0.00497363
         10094.08     0.004951748
         10095.76     0.004929901
         10097.42     0.004908243
         10099.11     0.004886313
         10100.77     0.004864505
         10102.44     0.004842343
         10104.12     0.004820206
         10105.79     0.004798122
         10107.46     0.004776205
         10109.14     0.004754187
         10110.81     0.004733011
         10112.49     0.004712708
         10114.17     0.004692429
         10115.84     0.004672176
         10117.52     0.004651946
         10119.19     0.004631858
         10120.86     0.004611854
         10122.54     0.004592051
         10124.22     0.004572257
          10125.9     0.004552484
         10127.58     0.004532734
         10129.25     0.004513131
         10130.92      0.00449253
          10132.6     0.004471242
         10134.28     0.004449991
         10135.96     0.004428764
         10137.65     0.004407574
         10139.33     0.004386419
           10141.     0.004365615
         10142.68     0.004344819
         10144.36     0.004324057
         10146.04     0.004303317
         10147.72     0.004282624
          10149.4     0.004262083
         10151.08     0.004241407
         10152.76     0.004220744
         10154.43     0.004200236
         10156.13     0.004179499
          10157.8     0.004159058
         10159.49     0.004138509
         10161.17     0.004118244
         10162.84     0.004098246
         10164.54     0.004078023
         10166.21     0.004058076
          10167.9     0.004038032
         10169.58     0.004018018
         10171.27     0.003998102
         10172.96     0.003978242
         10174.63     0.003958537
         10176.32     0.003938737
         10178.01     0.003918955
          10179.7     0.003899203
         10181.38     0.003879085
         10183.07     0.003858902
         10184.76     0.003838754
         10186.44     0.003818771
         10188.13     0.003798693
         10189.82     0.003778639
          10191.5     0.003758648
         10193.19     0.003738694
         10194.88     0.003718764
         10196.58     0.003698869
         10198.25     0.003679136
         10199.95      0.00365931
         10201.64     0.003639207
         10203.33     0.003619131
         10205.02     0.003599095
          10206.7     0.003579212
         10208.39      0.00355924
         10210.09     0.003539364
         10211.78     0.003520588
         10213.47     0.003501828
         10215.15     0.003483212
         10216.85     0.003464503
         10218.54      0.00344581
         10220.24     0.003427092
         10221.93     0.003408086
         10223.61      0.00338923
         10225.31     0.003370274
           10227.     0.003351349
          10228.7     0.003332454
          10230.4     0.003313578
         10232.08     0.003294865
         10233.78     0.003276042
         10235.47      0.00325726
         10237.17     0.003238498
         10238.87     0.003219768
         10240.57     0.003200842
         10242.25     0.003181654
         10243.95     0.003162373
         10245.65     0.003143129
         10247.35     0.003123914
         10249.05     0.003104748
         10250.75     0.003085245
         10252.45      0.00306535
         10254.14     0.003045629
         10255.84     0.003025818
         10257.54     0.003006056
         10259.24     0.002986331
         10260.94     0.002967605
         10262.64     0.002949683
         10264.33     0.002931901
         10266.03     0.002914021
         10267.73     0.002896169
         10269.44     0.002878344
         10271.14     0.002859919
         10272.83     0.002841353
         10274.53     0.002822698
         10276.24     0.002804081
         10277.94     0.002785492
         10279.65     0.002766942
         10281.34     0.002749003
         10283.04     0.002731094
         10284.75     0.002713216
         10286.45     0.002695369
         10288.16     0.002677552
         10289.85     0.002659879
         10291.56     0.002642186
         10293.27      0.00262452
         10294.97     0.002606894
         10296.68     0.002589288
         10298.39     0.002571702
         10300.08     0.002554251
         10301.79     0.002536405
          10303.5     0.002518585
         10305.21     0.002500788
         10306.92     0.002483037
         10308.63     0.002465311
         10310.32     0.002447639
         10312.03     0.002429488
         10313.74     0.002411389
         10315.45     0.002393311
         10317.16     0.002375286
         10318.87     0.002357293
         10320.58     0.002339637
         10322.28     0.002322699
           10324.     0.002305663
         10325.71     0.002288657
         10327.42      0.00227168
         10329.13     0.002254733
         10330.84     0.002237657
         10332.56      0.00222046
         10334.26     0.002203406
         10335.97     0.002186277
         10337.69     0.002169173
          10339.4     0.002152104
         10341.12     0.002134973
         10342.82     0.002117949
         10344.53     0.002100844
         10346.25     0.002083775
         10347.96     0.002066733
         10349.68     0.002049727
         10351.38     0.002033122
          10353.1     0.002016504
         10354.82     0.001999908
         10356.53     0.001983342
         10358.25     0.001966808
         10359.96     0.001950408
         10361.67     0.001933486
         10363.39     0.001916582
         10365.11     0.001899726
         10366.83       0.0018829
         10368.54     0.001866227
         10370.26      0.00184952
         10371.98     0.001833144
          10373.7     0.001816801
         10375.42      0.00180049
         10377.14     0.001784203
         10378.86     0.001767959
         10380.57     0.001751704
         10382.29      0.00173511
         10384.01     0.001718547
         10385.73     0.001702025
         10387.45     0.001685544
         10389.17     0.001669093
         10390.89     0.001653039
         10392.61     0.001637128
         10394.33     0.001621258
         10396.06     0.001605409
         10397.78     0.001589593
          10399.5     0.001573808
         10401.22     0.001557939
         10402.94     0.001541909
         10404.67     0.001525909
         10406.39     0.001509955
         10408.12     0.001494029
         10409.83      0.00147825
         10411.56     0.001462367
         10413.28      0.00144652
         10415.01     0.001430711
         10416.74     0.001414941
         10418.45     0.001399306
         10420.18     0.001383605
         10421.91     0.001367956
         10423.63     0.001352345
         10425.36     0.001336763
         10427.08     0.001321325
         10428.81      0.00130581
         10430.54     0.001290426
         10432.27     0.001275255
           10434.     0.001260107
         10435.73     0.001244999
         10437.45     0.001230016
         10439.18     0.001214963
         10440.91     0.001199928
         10442.64     0.001184921
         10444.37     0.001169947
          10446.1     0.001155004
         10447.83     0.001140093
         10449.56     0.001125298
         10451.29     0.001110346
         10453.02     0.001095395
         10454.75     0.001080471
         10456.49     0.001065583
         10458.22      0.00105073
         10459.94     0.001036006
         10461.68      0.00102149
         10463.41     0.001007012
         10465.15     9.925523E-4
         10466.88     9.781207E-4
         10468.61     9.638141E-4
         10470.35     9.492187E-4
         10472.08     9.343745E-4
         10473.81     9.194753E-4
         10475.55     9.046139E-4
         10477.29     8.898072E-4
         10479.03     8.750382E-4
         10480.75     8.605798E-4
         10482.49     8.462683E-4
         10484.23     8.319900E-4
         10485.97     8.177452E-4
          10487.7     8.035336E-4
         10489.43     7.894429E-4
         10491.17     7.751894E-4
         10492.91     7.609251E-4
         10494.64     7.467875E-4
         10496.39     7.325052E-4
         10498.12     7.184369E-4
         10499.86     7.043197E-4
          10501.6     7.005174E-4
         10503.34     6.976252E-4
         10505.08     6.947384E-4
         10506.81     6.918745E-4
         10508.56     6.889966E-4
          10510.3     6.861063E-4
         10512.04     6.831335E-4
         10513.78     6.801687E-4
         10515.53     6.772085E-4
         10517.27     6.742527E-4
           10519.     6.713231E-4
         10520.75     6.684607E-4
         10522.49     6.657118E-4
         10524.24     6.629674E-4
         10525.98     6.602262E-4
         10527.73     6.574894E-4
         10529.46     6.547743E-4
         10531.21     6.520571E-4
         10532.95     6.493498E-4
          10534.7     6.466471E-4
         10536.45     6.439472E-4
         10538.19     6.412520E-4
         10539.93     6.385792E-4
         10541.68     6.358392E-4
         10543.42     6.331034E-4
         10545.17     6.303695E-4
         10546.92     6.276422E-4
         10548.66     6.249366E-4
         10550.41     6.221662E-4
         10552.16     6.192310E-4
         10553.91     6.163011E-4
         10555.66     6.133782E-4
         10557.39     6.104818E-4
         10559.14     6.075728E-4
         10560.89     6.048136E-4
         10562.65     6.021978E-4
          10564.4     5.995848E-4
         10566.14     5.969951E-4
         10567.89     5.943909E-4
         10569.64     5.917898E-4
         10571.39     5.889827E-4
         10573.15     5.861262E-4
          10574.9     5.832765E-4
         10576.64     5.804510E-4
          10578.4     5.776134E-4
         10580.15     5.748083E-4
          10581.9     5.722826E-4
         10583.66     5.697596E-4
         10585.41     5.672406E-4
         10587.17     5.647258E-4
         10588.91     5.622319E-4
         10590.67     5.596371E-4
         10592.42     5.569062E-4
         10594.18     5.541799E-4
         10595.94     5.514601E-4
         10597.69     5.487466E-4
         10599.44     5.460574E-4
          10601.2     5.434602E-4
         10602.95     5.409179E-4
         10604.71     5.383803E-4
         10606.47     5.358476E-4
         10608.22     5.333350E-4
         10609.98     5.308104E-4
         10611.74     5.283401E-4
         10613.49     5.258762E-4
         10615.25     5.234153E-4
           10617.     5.209736E-4
         10618.76     5.185215E-4
         10620.52     5.159864E-4
         10622.29     5.132531E-4
         10624.05     5.105285E-4
          10625.8     5.078277E-4
         10627.56     5.051161E-4
         10629.32     5.024114E-4
         10631.08     4.998709E-4
         10632.84     4.974350E-4
         10634.61     4.950037E-4
         10636.36     4.925918E-4
         10638.12     4.901683E-4
         10639.89     4.877495E-4
         10641.65     4.852861E-4
         10643.42     4.828257E-4
         10645.18     4.803694E-4
         10646.93     4.779330E-4
          10648.7     4.754854E-4
         10650.46     4.730435E-4
         10652.23     4.706079E-4
           10654.     4.681777E-4
         10655.76     4.657510E-4
         10657.53     4.633282E-4
         10659.29     4.609280E-4
         10661.05     4.584836E-4
         10662.82     4.560231E-4
         10664.59     4.535684E-4
         10666.36     4.511180E-4
         10668.13     4.486733E-4
         10669.89     4.462342E-4
         10671.65     4.436688E-4
         10673.42     4.410840E-4
         10675.19     4.385065E-4
         10676.96     4.359366E-4
         10678.73     4.333726E-4
         10680.49     4.309209E-4
         10682.26     4.286866E-4
         10684.03     4.264574E-4
          10685.8     4.242308E-4
         10687.58     4.220069E-4
         10689.33     4.198030E-4
         10691.11     4.174626E-4
         10692.88     4.150533E-4
         10694.65     4.126487E-4
         10696.43     4.102517E-4
         10698.19     4.078741E-4
         10699.96     4.054882E-4
         10701.74     4.031565E-4
         10703.51     4.008314E-4
         10705.29     3.985120E-4
         10707.05     3.962135E-4
         10708.82     3.939039E-4
          10710.6     3.915852E-4
         10712.38     3.892471E-4
         10714.15     3.869139E-4
         10715.93     3.845867E-4
         10717.69     3.822809E-4
         10719.47     3.799645E-4
         10721.25     3.777439E-4
         10723.02     3.755662E-4
          10724.8     3.733918E-4
         10726.58     3.712221E-4
         10728.36     3.690569E-4
         10730.13     3.669058E-4
         10731.91     3.646835E-4
         10733.68     3.624664E-4
         10735.46     3.602536E-4
         10737.25     3.580463E-4
         10739.03     3.558442E-4
         10740.79     3.536955E-4
         10742.57     3.515788E-4
         10744.36     3.494654E-4
         10746.14     3.473554E-4
         10747.92     3.452509E-4
         10749.69     3.431636E-4
         10751.47     3.410156E-4
         10753.25     3.388619E-4
         10755.04     3.367123E-4
         10756.82     3.345680E-4
         10758.59     3.324429E-4
         10760.38     3.302972E-4
         10762.16     3.281165E-4
         10763.94     3.259417E-4
         10765.73     3.237717E-4
          10767.5     3.216218E-4
         10769.29     3.194638E-4
         10771.07     3.172927E-4
         10772.86     3.151143E-4
         10774.65     3.129423E-4
         10776.43     3.107766E-4
         10778.21     3.086303E-4
         10779.99     3.064761E-4
         10781.78     3.043968E-4
         10783.57     3.023219E-4
         10785.36     3.002525E-4
         10787.15     2.981887E-4
         10788.93     2.961302E-4
         10790.71     2.940751E-4
          10792.5     2.919908E-4
         10794.29     2.899113E-4
         10796.08     2.878388E-4
         10797.87     2.857713E-4
         10799.66     2.837085E-4
         10801.44     2.816810E-4
         10803.23     2.796482E-4
         10805.02     2.776211E-4
         10806.81     2.755988E-4
          10808.6     2.735819E-4
          10810.4     2.715815E-4
         10812.18     2.696364E-4
         10813.97     2.676824E-4
         10815.76     2.657334E-4
         10817.56     2.637895E-4
         10819.35     2.618495E-4
         10821.13     2.599309E-4
         10822.93     2.580069E-4
         10824.72     2.560878E-4
         10826.51     2.541726E-4
         10828.31     2.522623E-4
         10830.09     2.503581E-4
         10831.89     2.482606E-4
         10833.69     2.461712E-4
         10835.48     2.440898E-4
         10837.28     2.420152E-4
         10839.06     2.399621E-4
         10840.86     2.379938E-4
         10842.66     2.361297E-4
         10844.46     2.342695E-4
         10846.25     2.324132E-4
         10848.05     2.305629E-4
         10849.84     2.287287E-4
         10851.64     2.268492E-4
         10853.44     2.249716E-4
         10855.24     2.230987E-4
         10857.04     2.212315E-4
         10858.84     2.193700E-4
         10860.64     2.175081E-4
         10862.43     2.156551E-4
         10864.23     2.137957E-4
         10866.03     2.119413E-4
         10867.83     2.100929E-4
         10869.63     2.082504E-4
         10871.43     2.064462E-4
         10873.22     2.046662E-4
         10875.03     2.028798E-4
         10876.83     2.010987E-4
         10878.63     1.993218E-4
         10880.44     1.975460E-4
         10882.24     1.957622E-4
         10884.03     1.939963E-4
         10885.84     1.922234E-4
         10887.64     1.904561E-4
         10889.45     1.886934E-4
         10891.25     1.869624E-4
         10893.05     1.852598E-4
         10894.85     1.835491E-4
         10896.66     1.818433E-4
         10898.47     1.801424E-4
         10900.27     1.784305E-4
         10902.07     1.766472E-4
         10903.88     1.748591E-4
         10905.69     1.730779E-4
         10907.49     1.713027E-4
          10909.3     1.695353E-4
          10911.1     1.678307E-4
         10912.91     1.661486E-4
         10914.72     1.644720E-4
         10916.53     1.628008E-4
         10918.34     1.611350E-4
         10920.15     1.594711E-4
         10921.95     1.577955E-4
         10923.76     1.561151E-4
         10925.57     1.544398E-4
         10927.38     1.527705E-4
         10929.19     1.511073E-4
           10931.     1.494432E-4
         10932.82     1.477804E-4
         10934.62     1.461345E-4
         10936.43     1.444842E-4
         10938.24     1.428393E-4
         10940.06     1.412010E-4
         10941.87     1.395787E-4
         10943.69     1.379624E-4
         10945.49     1.363634E-4
          10947.3     1.347582E-4
         10949.12     1.331600E-4
         10950.93     1.315875E-4
         10952.75     1.300389E-4
         10954.56     1.284962E-4
         10956.37     1.269677E-4
         10958.19     1.254343E-4
           10960.     1.239052E-4
         10961.82     1.223556E-4
         10963.63     1.208224E-4
         10965.44     1.192835E-4
         10967.26     1.177502E-4
         10969.08     1.162227E-4
          10970.9     1.147108E-4
         10972.72     1.132133E-4
         10974.54     1.117212E-4
         10976.34     1.102438E-4
         10978.16     1.087621E-4
         10979.98     1.072849E-4
          10981.8     1.057709E-4
         10983.63     1.042623E-4
         10985.45     1.027601E-4
         10987.26     1.012739E-4
         10989.08     9.978464E-5
          10990.9     9.832317E-5
         10992.72     9.688988E-5
         10994.54     9.546175E-5
         10996.36     9.404718E-5
         10998.18     9.262854E-5
           11000.     9.121739E-5
