; NICMOS NIC1 QE x F170m filter
; wavelength in microns
1.50000	6.31001e-05
1.50050	1.91605e-05
1.50100	1.34308e-05
1.50150	2.49814e-05
1.50200	2.88870e-05
1.50250	1.92799e-05
1.50300	1.73956e-05
1.50350	3.09723e-05
1.50400	3.10298e-05
1.50450	5.81988e-06
1.50500	2.91563e-05
1.50550	2.14007e-05
1.50600	2.33970e-05
1.50650	4.87988e-05
1.50700	9.78677e-06
1.50750	0.00000
1.50800	0.00000
1.50850	5.89431e-05
1.50900	3.93876e-06
1.50950	0.00000
1.51000	1.18476e-05
1.51050	2.17313e-05
1.51100	3.16692e-05
1.51150	5.15474e-05
1.51200	3.17849e-05
1.51250	3.18188e-05
1.51300	3.99663e-06
1.51350	9.97057e-06
1.51400	2.19950e-05
1.51450	0.00000
1.51500	3.00839e-05
1.51550	0.00000
1.51600	1.20603e-05
1.51650	1.88439e-05
1.51700	3.22931e-05
1.51750	2.82953e-05
1.51800	0.00000
1.51850	2.63559e-05
1.51900	3.51117e-05
1.51950	3.05056e-05
1.52000	0.00000
1.52050	3.46845e-05
1.52100	0.00000
1.52150	3.48025e-05
1.52200	4.14950e-05
1.52250	4.71987e-05
1.52300	2.05906e-06
1.52350	3.70745e-05
1.52400	3.91946e-05
1.52450	1.65361e-05
1.52500	2.68976e-05
1.52550	3.93761e-05
1.52600	4.98237e-05
1.52650	1.03902e-05
1.52700	3.33170e-05
1.52750	4.37966e-05
1.52800	3.13449e-05
1.52850	2.30176e-05
1.52900	3.77341e-05
1.52950	4.61848e-05
1.53000	2.94369e-05
1.53050	4.00317e-05
1.53100	3.58570e-05
1.53150	4.64602e-05
1.53200	4.86666e-05
1.53250	8.04777e-05
1.53300	6.36852e-05
1.53350	2.12592e-05
1.53400	0.00000
1.53450	5.33268e-05
1.53500	3.41873e-05
1.53550	7.27647e-05
1.53600	3.64300e-05
1.53650	4.72366e-05
1.53700	6.23742e-05
1.53750	6.24664e-05
1.53800	6.47100e-05
1.53850	2.37937e-05
1.53900	5.84382e-05
1.53950	4.11809e-05
1.54000	9.74397e-05
1.54050	8.26566e-05
1.54100	7.61915e-05
1.54150	8.94437e-05
1.54200	6.99396e-05
1.54250	9.41308e-05
1.54300	5.70105e-05
1.54350	0.000109346
1.54400	7.91759e-05
1.54450	8.81089e-05
1.54500	5.51645e-05
1.54550	8.18016e-05
1.54600	0.000112877
1.54650	6.87293e-05
1.54700	0.000126587
1.54750	0.000104521
1.54800	0.000113603
1.54850	0.000102640
1.54900	0.000125140
1.54950	0.000132045
1.55000	0.000100861
1.55050	0.000151904
1.55100	0.000119204
1.55150	0.000162175
1.55200	0.000146617
1.55250	0.000122049
1.55300	0.000131312
1.55350	0.000172289
1.55400	0.000129466
1.55450	0.000170590
1.55500	0.000164072
1.55550	0.000196140
1.55600	0.000196545
1.55650	0.000233512
1.55700	0.000226905
1.55750	0.000197538
1.55800	0.000243866
1.55850	0.000283441
1.55900	0.000246909
1.55950	0.000219692
1.56000	0.000282506
1.56050	0.000329251
1.56100	0.000304364
1.56150	0.000290967
1.56200	0.000347230
1.56250	0.000411740
1.56300	0.000378931
1.56350	0.000411961
1.56400	0.000410594
1.56450	0.000439356
1.56500	0.000463638
1.56550	0.000464472
1.56600	0.000543969
1.56650	0.000558157
1.56700	0.000502526
1.56750	0.000609725
1.56800	0.000686471
1.56850	0.000659163
1.56900	0.000658114
1.56950	0.000771242
1.57000	0.000806061
1.57050	0.000802885
1.57100	0.000914411
1.57150	0.000988015
1.57200	0.00102838
1.57250	0.00108130
1.57300	0.00117883
1.57350	0.00122246
1.57400	0.00126134
1.57450	0.00140162
1.57500	0.00148679
1.57550	0.00155476
1.57600	0.00170868
1.57650	0.00182597
1.57700	0.00196787
1.57750	0.00207512
1.57800	0.00224304
1.57850	0.00242853
1.57900	0.00252212
1.57950	0.00276015
1.58000	0.00297342
1.58050	0.00321000
1.58100	0.00345717
1.58150	0.00371931
1.58200	0.00400081
1.58250	0.00433118
1.58300	0.00473498
1.58350	0.00511095
1.58400	0.00552544
1.58450	0.00602525
1.58500	0.00651229
1.58550	0.00707697
1.58600	0.00773072
1.58650	0.00845587
1.58700	0.00922350
1.58750	0.0100787
1.58800	0.0110356
1.58850	0.0120798
1.58900	0.0132150
1.58950	0.0145306
1.59000	0.0161252
1.59050	0.0177023
1.59100	0.0193860
1.59150	0.0213475
1.59200	0.0235849
1.59250	0.0261230
1.59300	0.0289253
1.59350	0.0320107
1.59400	0.0354019
1.59450	0.0390305
1.59500	0.0432095
1.59550	0.0479114
1.59600	0.0531196
1.59650	0.0588838
1.59700	0.0648760
1.59750	0.0714920
1.59800	0.0785717
1.59850	0.0863010
1.59900	0.0948348
1.59950	0.103726
1.60000	0.112940
1.60050	0.122254
1.60100	0.131732
1.60150	0.141437
1.60200	0.151453
1.60250	0.161669
1.60300	0.171037
1.60350	0.179649
1.60400	0.187673
1.60450	0.195093
1.60500	0.201788
1.60550	0.207860
1.60600	0.212918
1.60650	0.216939
1.60700	0.220292
1.60750	0.222909
1.60800	0.224913
1.60850	0.226404
1.60900	0.227344
1.60950	0.227762
1.61000	0.228031
1.61050	0.227966
1.61100	0.227829
1.61150	0.227531
1.61200	0.227063
1.61250	0.226652
1.61300	0.226298
1.61350	0.226005
1.61400	0.225742
1.61450	0.225539
1.61500	0.225435
1.61550	0.225528
1.61600	0.225671
1.61650	0.225926
1.61700	0.226300
1.61750	0.226876
1.61800	0.227557
1.61850	0.228282
1.61900	0.229166
1.61950	0.230105
1.62000	0.231106
1.62050	0.232255
1.62100	0.233418
1.62150	0.234764
1.62200	0.236098
1.62250	0.237378
1.62300	0.238747
1.62350	0.240255
1.62400	0.241662
1.62450	0.243102
1.62500	0.244563
1.62550	0.246005
1.62600	0.247258
1.62650	0.248600
1.62700	0.249973
1.62750	0.251088
1.62800	0.252278
1.62850	0.253405
1.62900	0.254395
1.62950	0.255305
1.63000	0.256150
1.63050	0.256849
1.63100	0.257662
1.63150	0.258193
1.63200	0.258658
1.63250	0.259121
1.63300	0.259419
1.63350	0.259621
1.63400	0.259802
1.63450	0.259849
1.63500	0.259865
1.63550	0.259798
1.63600	0.259716
1.63650	0.259588
1.63700	0.259289
1.63750	0.259003
1.63800	0.258737
1.63850	0.258423
1.63900	0.258073
1.63950	0.257643
1.64000	0.257311
1.64050	0.256844
1.64100	0.256366
1.64150	0.256081
1.64200	0.255643
1.64250	0.255278
1.64300	0.254897
1.64350	0.254489
1.64400	0.254108
1.64450	0.253890
1.64500	0.253597
1.64550	0.253352
1.64600	0.253158
1.64650	0.252948
1.64700	0.252864
1.64750	0.252802
1.64800	0.252766
1.64850	0.252712
1.64900	0.252784
1.64950	0.252835
1.65000	0.252918
1.65050	0.253065
1.65100	0.253289
1.65150	0.253599
1.65200	0.253750
1.65250	0.254136
1.65300	0.254526
1.65350	0.254897
1.65400	0.255403
1.65450	0.255813
1.65500	0.256234
1.65550	0.256757
1.65600	0.257365
1.65650	0.257951
1.65700	0.258546
1.65750	0.259226
1.65800	0.259741
1.65850	0.260409
1.65900	0.261130
1.65950	0.261830
1.66000	0.262479
1.66050	0.263161
1.66100	0.263831
1.66150	0.264473
1.66200	0.265150
1.66250	0.265828
1.66300	0.266469
1.66350	0.267124
1.66400	0.267767
1.66450	0.268373
1.66500	0.268804
1.66550	0.269487
1.66600	0.270138
1.66650	0.270643
1.66700	0.271154
1.66750	0.271630
1.66800	0.272098
1.66850	0.272431
1.66900	0.272953
1.66950	0.273345
1.67000	0.273559
1.67050	0.273845
1.67100	0.274150
1.67150	0.274367
1.67200	0.274631
1.67250	0.274853
1.67300	0.274947
1.67350	0.275117
1.67400	0.275182
1.67450	0.275267
1.67500	0.275200
1.67550	0.275356
1.67600	0.275320
1.67650	0.275256
1.67700	0.275296
1.67750	0.275301
1.67800	0.275179
1.67850	0.275093
1.67900	0.274955
1.67950	0.274898
1.68000	0.274762
1.68050	0.274680
1.68100	0.274443
1.68150	0.274328
1.68200	0.274222
1.68250	0.274101
1.68300	0.274112
1.68350	0.273960
1.68400	0.273804
1.68450	0.273735
1.68500	0.273694
1.68550	0.273498
1.68600	0.273579
1.68650	0.273375
1.68700	0.273378
1.68750	0.273355
1.68800	0.273273
1.68850	0.273279
1.68900	0.273290
1.68950	0.273434
1.69000	0.273465
1.69050	0.273511
1.69100	0.273567
1.69150	0.273715
1.69200	0.273909
1.69250	0.274110
1.69300	0.274100
1.69350	0.274305
1.69400	0.274540
1.69450	0.274867
1.69500	0.275026
1.69550	0.275365
1.69600	0.275641
1.69650	0.275956
1.69700	0.276330
1.69750	0.276626
1.69800	0.276914
1.69850	0.277330
1.69900	0.277576
1.69950	0.278074
1.70000	0.278485
1.70050	0.278708
1.70100	0.278963
1.70150	0.279232
1.70200	0.279572
1.70250	0.279819
1.70300	0.280048
1.70350	0.280307
1.70400	0.280641
1.70450	0.280841
1.70500	0.281273
1.70550	0.281435
1.70600	0.281784
1.70650	0.282016
1.70700	0.282196
1.70750	0.282497
1.70800	0.282833
1.70850	0.282980
1.70900	0.283186
1.70950	0.283427
1.71000	0.283606
1.71050	0.283638
1.71100	0.283837
1.71150	0.284068
1.71200	0.284020
1.71250	0.284302
1.71300	0.284334
1.71350	0.284426
1.71400	0.284520
1.71450	0.284519
1.71500	0.284454
1.71550	0.284468
1.71600	0.284557
1.71650	0.284421
1.71700	0.284340
1.71750	0.284228
1.71800	0.284138
1.71850	0.284016
1.71900	0.283879
1.71950	0.283619
1.72000	0.283452
1.72050	0.283486
1.72100	0.283150
1.72150	0.282933
1.72200	0.282758
1.72250	0.282495
1.72300	0.282255
1.72350	0.282006
1.72400	0.281764
1.72450	0.281557
1.72500	0.281270
1.72550	0.281023
1.72600	0.280693
1.72650	0.280466
1.72700	0.280235
1.72750	0.280010
1.72800	0.279646
1.72850	0.279397
1.72900	0.279167
1.72950	0.279019
1.73000	0.278657
1.73050	0.278582
1.73100	0.278305
1.73150	0.278209
1.73200	0.278052
1.73250	0.277777
1.73300	0.277703
1.73350	0.277657
1.73400	0.277615
1.73450	0.277468
1.73500	0.277386
1.73550	0.277358
1.73600	0.277339
1.73650	0.277388
1.73700	0.277559
1.73750	0.277618
1.73800	0.277674
1.73850	0.277785
1.73900	0.277956
1.73950	0.278147
1.74000	0.278299
1.74050	0.278533
1.74100	0.278828
1.74150	0.279203
1.74200	0.279485
1.74250	0.279824
1.74300	0.280167
1.74350	0.280544
1.74400	0.280966
1.74450	0.281445
1.74500	0.281960
1.74550	0.282504
1.74600	0.283072
1.74650	0.283445
1.74700	0.284096
1.74750	0.284661
1.74800	0.285311
1.74850	0.285986
1.74900	0.286609
1.74950	0.287250
1.75000	0.287903
1.75050	0.288516
1.75100	0.289329
1.75150	0.290020
1.75200	0.290760
1.75250	0.291511
1.75300	0.292105
1.75350	0.292889
1.75400	0.293649
1.75450	0.294349
1.75500	0.295070
1.75550	0.295733
1.75600	0.296349
1.75650	0.297056
1.75700	0.297760
1.75750	0.298493
1.75800	0.299030
1.75850	0.299649
1.75900	0.300271
1.75950	0.300883
1.76000	0.301283
1.76050	0.301861
1.76100	0.302350
1.76150	0.302847
1.76200	0.302964
1.76250	0.303522
1.76300	0.303894
1.76350	0.304181
1.76400	0.304475
1.76450	0.304709
1.76500	0.304982
1.76550	0.305040
1.76600	0.305281
1.76650	0.305322
1.76700	0.305408
1.76750	0.305471
1.76800	0.305617
1.76850	0.305487
1.76900	0.305402
1.76950	0.305306
1.77000	0.305175
1.77050	0.305200
1.77100	0.304911
1.77150	0.304877
1.77200	0.304816
1.77250	0.304421
1.77300	0.304523
1.77350	0.304152
1.77400	0.303977
1.77450	0.303794
1.77500	0.303610
1.77550	0.303636
1.77600	0.303479
1.77650	0.303262
1.77700	0.303164
1.77750	0.303132
1.77800	0.303118
1.77850	0.303102
1.77900	0.303145
1.77950	0.303230
1.78000	0.303285
1.78050	0.303472
1.78100	0.303717
1.78150	0.303886
1.78200	0.304135
1.78250	0.304359
1.78300	0.304655
1.78350	0.305052
1.78400	0.305505
1.78450	0.305815
1.78500	0.306141
1.78550	0.306611
1.78600	0.307034
1.78650	0.307427
1.78700	0.307782
1.78750	0.308141
1.78800	0.308298
1.78850	0.308638
1.78900	0.308527
1.78950	0.308481
1.79000	0.308298
1.79050	0.307968
1.79100	0.307437
1.79150	0.306601
1.79200	0.305465
1.79250	0.303988
1.79300	0.302330
1.79350	0.300262
1.79400	0.297662
1.79450	0.294758
1.79500	0.291261
1.79550	0.287293
1.79600	0.282834
1.79650	0.278035
1.79700	0.272618
1.79750	0.266880
1.79800	0.260505
1.79850	0.253582
1.79900	0.246109
1.79950	0.238487
1.80000	0.230544
1.80050	0.222438
1.80100	0.213742
1.80150	0.204339
1.80200	0.195057
1.80250	0.186317
1.80300	0.177287
1.80350	0.168904
1.80400	0.160352
1.80450	0.151656
1.80500	0.142929
1.80550	0.134691
1.80600	0.126787
1.80650	0.119315
1.80700	0.112081
1.80750	0.105199
1.80800	0.0981989
1.80850	0.0920949
1.80900	0.0863012
1.80950	0.0810237
1.81000	0.0758391
1.81050	0.0709850
1.81100	0.0660672
1.81150	0.0613160
1.81200	0.0573977
1.81250	0.0536708
1.81300	0.0503622
1.81350	0.0471478
1.81400	0.0441168
1.81450	0.0412075
1.81500	0.0383646
1.81550	0.0357552
1.81600	0.0336298
1.81650	0.0315266
1.81700	0.0294743
1.81750	0.0275724
1.81800	0.0258705
1.81850	0.0240988
1.81900	0.0229293
1.81950	0.0217125
1.82000	0.0202590
1.82050	0.0189120
1.82100	0.0176221
1.82150	0.0165109
1.82200	0.0153196
1.82250	0.0146799
1.82300	0.0137190
1.82350	0.0129858
1.82400	0.0122432
1.82450	0.0116852
1.82500	0.0109358
1.82550	0.0104229
1.82600	0.00987971
1.82650	0.00932691
1.82700	0.00856378
1.82750	0.00814332
1.82800	0.00772069
1.82850	0.00751522
1.82900	0.00704389
1.82950	0.00673609
1.83000	0.00632250
1.83050	0.00613557
1.83100	0.00574858
1.83150	0.00541406
1.83200	0.00511191
1.83250	0.00492216
1.83300	0.00460264
1.83350	0.00440414
1.83400	0.00425156
1.83450	0.00418253
1.83500	0.00384946
1.83550	0.00362577
1.83600	0.00333564
1.83650	0.00326130
1.83700	0.00320389
1.83750	0.00292895
1.83800	0.00303456
1.83850	0.00284129
1.83900	0.00258066
1.83950	0.00257748
1.84000	0.00250186
1.84050	0.00219316
1.84100	0.00217413
1.84150	0.00211511
1.84200	0.00182332
1.84250	0.00177865
1.84300	0.00181408
1.84350	0.00180631
1.84400	0.00186869
1.84450	0.00169869
1.84500	0.00160299
1.84550	0.00162718
1.84600	0.00120018
1.84650	0.00137759
1.84700	0.00131628
1.84750	0.00121769
1.84800	0.00122924
1.84850	0.00124068
1.84900	0.00109860
1.84950	0.00111012
1.85000	0.00110376
1.85050	0.00107267
1.85100	0.00108943
1.85150	0.00103295
1.85200	0.000995887
1.85250	0.000912065
1.85300	0.000771870
1.85350	0.000873112
1.85400	0.000891281
1.85450	0.000999291
1.85500	0.000836340
1.85550	0.000664768
1.85600	0.000483830
1.85650	0.000755821
1.85700	0.000717676
1.85750	0.000655903
1.85800	0.000503608
1.85850	0.000668652
1.85900	0.000498476
1.85950	0.000682696
1.86000	0.000585145
1.86050	0.000624276
1.86100	0.000520382
1.86150	0.000531118
1.86200	0.000399641
1.86250	0.000425685
1.86300	0.000387062
1.86350	0.000486365
1.86400	0.000446022
1.86450	0.000331693
1.86500	0.000485156
1.86550	0.000422686
1.86600	0.000410929
1.86650	0.000415856
1.86700	0.000380638
1.86750	0.000354610
1.86800	0.000344648
1.86850	0.000225645
1.86900	0.000324438
1.86950	0.000408647
1.87000	0.000357752
1.87050	0.000142828
1.87100	0.000343189
1.87150	0.000242282
1.87200	0.000242032
1.87250	0.000341990
1.87300	0.000183767
1.87350	0.000199340
1.87400	0.000191219
1.87450	0.000138281
1.87500	0.000275725
1.87550	8.90376e-05
1.87600	0.000191406
1.87650	0.000192943
1.87700	0.000216830
1.87750	0.000181960
1.87800	2.63943e-05
1.87850	0.000165604
1.87900	0.000111677
1.87950	0.000145921
1.88000	0.000276469
1.88050	0.000225557
1.88100	0.000398247
1.88150	0.000148066
1.88200	0.000193294
1.88250	0.000115422
1.88300	0.000143851
1.88350	0.000155905
1.88400	0.000192444
1.88450	0.000145880
1.88500	0.000168183
1.88550	0.000194104
1.88600	0.000191984
1.88650	0.000164773
1.88700	6.12344e-05
1.88750	0.000113858
1.88800	9.74263e-05
1.88850	6.28654e-05
1.88900	0.00000
1.88950	2.84699e-05
1.89000	6.64666e-05
1.89050	7.00790e-05
1.89100	0.000179752
1.89150	6.07624e-05
1.89200	0.000188633
1.89250	0.000200113
1.89300	0.000199513
1.89350	5.51854e-05
1.89400	8.66932e-05
1.89450	7.70319e-05
1.89500	8.85492e-05
1.89550	8.87668e-06
1.89600	0.00000
1.89650	0.000105048
1.89700	0.000151248
1.89750	9.80583e-05
1.89800	0.00000
1.89850	0.000136785
1.89900	0.000107901
1.89950	0.000161014
1.90000	9.43998e-05
