; y band transmission from hillenbrand et al. 2002, pasp, 114, 708
; wavelength (microns) transmission (p60) transmission (nirc)
9260 0.0000 0.0000
9270 0.0016 0.0000
9280 0.0032 0.0000
9290 0.0044 0.0000
9300 0.0050 0.0000
9310 0.0060 0.0000
9320 0.0070 0.0010
9330 0.0080 0.0014
9340 0.0100 0.0024
9350 0.0130 0.0026
9360 0.0160 0.0037
9370 0.0180 0.0051
9380 0.0200 0.0059
9390 0.0250 0.0078
9400 0.0300 0.0097
9410 0.0350 0.0117
9420 0.0400 0.0140
9430 0.0500 0.0170
9440 0.0600 0.0211
9450 0.0700 0.0259
9460 0.0800 0.0300
9470 0.1100 0.0365
9480 0.1300 0.0462
9490 0.1633 0.0542
9500 0.2000 0.0618
9510 0.2315 0.0758
9520 0.2530 0.0847
9530 0.2730 0.1082
9540 0.3000 0.1264
9550 0.3401 0.1505
9560 0.3903 0.1716
9570 0.4454 0.1944
9580 0.5000 0.2192
9590 0.5497 0.2539
9600 0.5933 0.2948
9610 0.6302 0.3248
9620 0.6600 0.3938
9630 0.6826 0.4533
9640 0.6991 0.4982
9650 0.7111 0.5455
9660 0.7200 0.5871
9670 0.7271 0.6177
9680 0.7328 0.6435
9690 0.7371 0.6621
9700 0.7400 0.6748
9710 0.7417 0.6864
9720 0.7427 0.6976
9730 0.7436 0.6999
9740 0.7450 0.7057
9750 0.7472 0.7090
9760 0.7500 0.7109
9770 0.7528 0.7124
9780 0.7550 0.7136
9790 0.7563 0.7151
9800 0.7566 0.7152
9810 0.7561 0.7165
9820 0.7550 0.7165
9830 0.7533 0.7165
9840 0.7511 0.7165
9850 0.7484 0.7165
9860 0.7450 0.7134
9870 0.7411 0.7125
9880 0.7369 0.7110
9890 0.7331 0.7083
9900 0.7300 0.7058
9910 0.7280 0.7019
9920 0.7267 0.6993
9930 0.7259 0.6964
9940 0.7250 0.6935
9950 0.7238 0.6891
9960 0.7225 0.6841
9970 0.7212 0.6816
9980 0.7200 0.6770
9990 0.7191 0.6739
10000 0.7183 0.6708
10010 0.7170 0.6655
10020 0.7150 0.6628
10030 0.7119 0.6614
10040 0.7081 0.6574
10050 0.7039 0.6547
10060 0.7000 0.6534
10070 0.6966 0.6534
10080 0.6939 0.6493
10090 0.6917 0.6480
10100 0.6900 0.6467
10110 0.6888 0.6426
10120 0.6878 0.6426
10130 0.6866 0.6426
10140 0.6850 0.6427
10150 0.6827 0.6427
10160 0.6801 0.6427
10170 0.6774 0.6373
10180 0.6750 0.6359
10190 0.6732 0.6319
10200 0.6719 0.6292
10210 0.6709 0.6279
10220 0.6700 0.6265
10230 0.6690 0.6239
10250 0.6665 0.6225
10260 0.6650 0.6225
10270 0.6634 0.6212
10280 0.6619 0.6198
10290 0.6607 0.6172
10300 0.6600 0.6172
10310 0.6599 0.6145
10320 0.6604 0.6131
10330 0.6612 0.6105
10340 0.6620 0.6105
10350 0.6628 0.6091
10360 0.6635 0.6091
10370 0.6642 0.6078
10380 0.6650 0.6078
10390 0.6659 0.6092
10400 0.6671 0.6092
10410 0.6684 0.6078
10420 0.6700 0.6092
10430 0.6718 0.6092
10440 0.6735 0.6092
10450 0.6747 0.6092
10460 0.6750 0.6105
10470 0.6743 0.6119
10480 0.6728 0.6119
10490 0.6712 0.6146
10500 0.6700 0.6146
10510 0.6696 0.6146
10520 0.6697 0.6133
10530 0.6699 0.6133
10540 0.6700 0.6146
10550 0.6695 0.6146
10560 0.6685 0.6133
10570 0.6670 0.6133
10580 0.6650 0.6120
10590 0.6627 0.6093
10600 0.6601 0.6079
10610 0.6575 0.6066
10620 0.6550 0.6026
10630 0.6527 0.6026
10640 0.6504 0.5999
10650 0.6479 0.5972
10660 0.6450 0.5959
10670 0.6415 0.5945
10680 0.6375 0.5945
10690 0.6336 0.5892
10700 0.6300 0.5865
10710 0.6270 0.5865
10720 0.6244 0.5865
10730 0.6222 0.5838
10740 0.6200 0.5798
10750 0.6178 0.5757
10760 0.6154 0.5744
10770 0.6129 0.5690
10780 0.6100 0.5636
10790 0.6068 0.5623
10800 0.6032 0.5582
10810 0.5993 0.5569
10820 0.5950 0.5542
10830 0.5905 0.5529
10840 0.5861 0.5435
10850 0.5825 0.5408
10860 0.5800 0.5408
10870 0.5790 0.5367
10880 0.5785 0.5341
10890 0.5775 0.5260
10900 0.5750 0.5233
10910 0.5701 0.5193
10920 0.5636 0.5166
10930 0.5565 0.5139
10940 0.5500 0.5072
10950 0.5448 0.5004
10960 0.5408 0.4991
10970 0.5377 0.4924
10980 0.5350 0.4910
10990 0.5326 0.4870
11000 0.5306 0.4843
11010 0.5296 0.4803
11020 0.5300 0.4776
11030 0.5318 0.4736
11040 0.5335 0.4736
11050 0.5335 0.4695
11060 0.5300 0.4668
11070 0.5213 0.4669
11080 0.5059 0.4669
11090 0.4826 0.4642
11100 0.4500 0.4628
11110 0.4075 0.4588
11120 0.3577 0.4480
11130 0.3041 0.4426
11140 0.2500 0.4292
11150 0.1986 0.3942
11160 0.1519 0.3713
11170 0.1118 0.3349
11180 0.0800 0.3147
11190 0.0578 0.3038
11200 0.0435 0.2929
11210 0.0350 0.2819
11220 0.0300 0.2710
11230 0.0266 0.2601
11250 0.0221 0.2383
11260 0.0200 0.2274
11270 0.0176 0.2164
11280 0.0149 0.2055
11290 0.0123 0.1946
11300 0.0100 0.1837
11310 0.0082 0.1728
11320 0.0069 0.1618
11330 0.0059 0.1509
11340 0.0050 0.1400
11350 0.0042 0.1291
11360 0.0034 0.1182
11370 0.0027 0.1072
11380 0.0020 0.0963
11390 0.0014 0.0854
11400 0.0008 0.0745
11410 0.0004 0.0636
11420 0.0000 0.0527
11430 0.0000 0.0417
11440 0.0000 0.0308
11450 0.0000 0.0199
11460 0.0000 0.0090
11470 0.0000 0.0000
